11/11/2020 12:54 AM
Wavelength (nm)	10mm Absorbance
//WLCalib: Shift 	0.05667	
//WLCalib: 261S 	-0.41000	
//WLCalib: 362S 	-0.47000	
//WLCalib: 484S 	0.00000	
//WLCalib: 529S 	0.07000	
//WLCalib: 823S 	-0.52000	
//QSpecEnd: 
220.0	13.915
220.5	14.579
221.0	15.530
221.5	16.271
222.0	16.707
222.5	17.518
223.0	18.224
223.5	18.893
224.0	19.945
224.5	20.561
225.0	20.780
225.5	20.925
226.0	20.887
226.5	20.712
227.0	20.434
227.5	20.095
228.0	19.697
228.5	19.248
229.0	18.746
229.5	18.195
230.0	17.555
230.5	16.873
231.0	16.163
231.5	15.411
232.0	14.630
232.5	13.796
233.0	12.934
233.5	12.093
234.0	11.279
234.5	10.483
235.0	9.728
235.5	9.007
236.0	8.332
236.5	7.710
237.0	7.118
237.5	6.536
238.0	5.966
238.5	5.435
239.0	4.981
239.5	4.614
240.0	4.330
240.5	4.107
241.0	3.928
241.5	3.778
242.0	3.652
242.5	3.532
243.0	3.422
243.5	3.326
244.0	3.249
244.5	3.191
245.0	3.146
245.5	3.110
246.0	3.079
246.5	3.051
247.0	3.031
247.5	3.019
248.0	3.012
248.5	3.011
249.0	3.015
249.5	3.021
250.0	3.031
250.5	3.043
251.0	3.057
251.5	3.074
252.0	3.095
252.5	3.120
253.0	3.150
253.5	3.183
254.0	3.223
254.5	3.257
255.0	3.293
255.5	3.335
256.0	3.382
256.5	3.438
257.0	3.492
257.5	3.534
258.0	3.571
258.5	3.602
259.0	3.627
259.5	3.650
260.0	3.670
260.5	3.689
261.0	3.708
261.5	3.723
262.0	3.742
262.5	3.760
263.0	3.778
263.5	3.796
264.0	3.816
264.5	3.839
265.0	3.869
265.5	3.897
266.0	3.921
266.5	3.944
267.0	3.963
267.5	3.983
268.0	3.999
268.5	4.013
269.0	4.025
269.5	4.037
270.0	4.047
270.5	4.059
271.0	4.072
271.5	4.083
272.0	4.092
272.5	4.099
273.0	4.103
273.5	4.106
274.0	4.107
274.5	4.107
275.0	4.106
275.5	4.104
276.0	4.100
276.5	4.096
277.0	4.086
277.5	4.073
278.0	4.053
278.5	4.025
279.0	3.995
279.5	3.964
280.0	3.931
280.5	3.895
281.0	3.854
281.5	3.805
282.0	3.749
282.5	3.684
283.0	3.614
283.5	3.539
284.0	3.461
284.5	3.385
285.0	3.307
285.5	3.226
286.0	3.141
286.5	3.050
287.0	2.947
287.5	2.839
288.0	2.733
288.5	2.630
289.0	2.524
289.5	2.419
290.0	2.308
290.5	2.190
291.0	2.061
291.5	1.934
292.0	1.810
292.5	1.693
293.0	1.584
293.5	1.470
294.0	1.358
294.5	1.252
295.0	1.153
295.5	1.064
296.0	0.984
296.5	0.915
297.0	0.852
297.5	0.796
298.0	0.742
298.5	0.693
299.0	0.643
299.5	0.596
300.0	0.556
300.5	0.517
301.0	0.480
301.5	0.442
302.0	0.404
302.5	0.370
303.0	0.338
303.5	0.310
304.0	0.284
304.5	0.260
305.0	0.238
305.5	0.218
306.0	0.200
306.5	0.183
307.0	0.169
307.5	0.156
308.0	0.144
308.5	0.135
309.0	0.126
309.5	0.118
310.0	0.111
310.5	0.106
311.0	0.100
311.5	0.094
312.0	0.092
312.5	0.089
313.0	0.085
313.5	0.081
314.0	0.080
314.5	0.077
315.0	0.074
315.5	0.071
316.0	0.066
316.5	0.062
317.0	0.060
317.5	0.057
318.0	0.055
318.5	0.052
319.0	0.051
319.5	0.049
320.0	0.048
320.5	0.046
321.0	0.044
321.5	0.038
322.0	0.036
322.5	0.037
323.0	0.036
323.5	0.034
324.0	0.032
324.5	0.031
325.0	0.031
325.5	0.032
326.0	0.028
326.5	0.027
327.0	0.025
327.5	0.025
328.0	0.025
328.5	0.024
329.0	0.024
329.5	0.023
330.0	0.021
330.5	0.019
331.0	0.019
331.5	0.018
332.0	0.019
332.5	0.018
333.0	0.016
333.5	0.016
334.0	0.015
334.5	0.013
335.0	0.010
335.5	0.007
336.0	0.008
336.5	0.008
337.0	0.006
337.5	0.004
338.0	0.004
338.5	0.003
339.0	0.003
339.5	0.002
340.0	0.000
340.5	0.000
341.0	-0.003
341.5	-0.004
342.0	-0.005
342.5	-0.005
343.0	-0.004
343.5	-0.004
344.0	-0.006
344.5	-0.005
345.0	-0.005
345.5	-0.005
346.0	-0.006
346.5	-0.007
347.0	-0.007
347.5	-0.007
348.0	-0.007
348.5	-0.007
349.0	-0.006
349.5	-0.006
350.0	-0.004



11/11/2020 12:54 AM
Wavelength (nm)	10mm Absorbance
//WLCalib: Shift 	0.05667	
//WLCalib: 261S 	-0.41000	
//WLCalib: 362S 	-0.47000	
//WLCalib: 484S 	0.00000	
//WLCalib: 529S 	0.07000	
//WLCalib: 823S 	-0.52000	
//QSpecEnd: 
220.0	1.939
220.5	2.628
221.0	3.203
221.5	4.044
222.0	4.668
222.5	5.513
223.0	6.537
223.5	7.732
224.0	9.197
224.5	10.926
225.0	12.745
225.5	14.349
226.0	15.677
226.5	16.751
227.0	17.719
227.5	18.587
228.0	19.356
228.5	19.948
229.0	20.363
229.5	21.163
230.0	21.639
230.5	21.877
231.0	22.239
231.5	22.627
232.0	22.675
232.5	22.417
233.0	21.883
233.5	21.306
234.0	20.661
234.5	19.773
235.0	18.763
235.5	17.716
236.0	16.618
236.5	15.552
237.0	14.471
237.5	13.408
238.0	12.360
238.5	11.360
239.0	10.513
239.5	9.871
240.0	9.384
240.5	8.996
241.0	8.670
241.5	8.382
242.0	8.121
242.5	7.865
243.0	7.608
243.5	7.377
244.0	7.186
244.5	7.037
245.0	6.921
245.5	6.826
246.0	6.745
246.5	6.677
247.0	6.622
247.5	6.586
248.0	6.564
248.5	6.559
249.0	6.565
249.5	6.581
250.0	6.604
250.5	6.638
251.0	6.679
251.5	6.733
252.0	6.798
252.5	6.873
253.0	6.960
253.5	7.058
254.0	7.158
254.5	7.260
255.0	7.364
255.5	7.486
256.0	7.623
256.5	7.788
257.0	7.948
257.5	8.085
258.0	8.200
258.5	8.297
259.0	8.380
259.5	8.456
260.0	8.526
260.5	8.591
261.0	8.656
261.5	8.718
262.0	8.778
262.5	8.835
263.0	8.904
263.5	8.986
264.0	9.083
264.5	9.193
265.0	9.326
265.5	9.449
266.0	9.571
266.5	9.689
267.0	9.801
267.5	9.908
268.0	10.021
268.5	10.135
269.0	10.240
269.5	10.339
270.0	10.438
270.5	10.527
271.0	10.615
271.5	10.702
272.0	10.783
272.5	10.857
273.0	10.935
273.5	11.008
274.0	11.075
274.5	11.131
275.0	11.197
275.5	11.258
276.0	11.309
276.5	11.352
277.0	11.386
277.5	11.406
278.0	11.415
278.5	11.396
279.0	11.362
279.5	11.330
280.0	11.281
280.5	11.217
281.0	11.132
281.5	11.051
282.0	10.925
282.5	10.771
283.0	10.593
283.5	10.391
284.0	10.183
284.5	9.978
285.0	9.757
285.5	9.522
286.0	9.273
286.5	9.000
287.0	8.688
287.5	8.362
288.0	8.036
288.5	7.711
289.0	7.376
289.5	7.042
290.0	6.687
290.5	6.305
291.0	5.902
291.5	5.494
292.0	5.108
292.5	4.755
293.0	4.415
293.5	4.075
294.0	3.746
294.5	3.440
295.0	3.160
295.5	2.910
296.0	2.690
296.5	2.493
297.0	2.316
297.5	2.155
298.0	2.002
298.5	1.855
299.0	1.711
299.5	1.578
300.0	1.454
300.5	1.338
301.0	1.224
301.5	1.111
302.0	1.000
302.5	0.895
303.0	0.802
303.5	0.717
304.0	0.644
304.5	0.575
305.0	0.512
305.5	0.454
306.0	0.402
306.5	0.355
307.0	0.312
307.5	0.274
308.0	0.242
308.5	0.214
309.0	0.190
309.5	0.168
310.0	0.152
310.5	0.136
311.0	0.121
311.5	0.110
312.0	0.101
312.5	0.093
313.0	0.085
313.5	0.078
314.0	0.073
314.5	0.067
315.0	0.063
315.5	0.059
316.0	0.054
316.5	0.051
317.0	0.050
317.5	0.047
318.0	0.045
318.5	0.044
319.0	0.043
319.5	0.043
320.0	0.042
320.5	0.040
321.0	0.039
321.5	0.034
322.0	0.034
322.5	0.035
323.0	0.034
323.5	0.032
324.0	0.031
324.5	0.027
325.0	0.026
325.5	0.025
326.0	0.023
326.5	0.021
327.0	0.020
327.5	0.019
328.0	0.019
328.5	0.018
329.0	0.018
329.5	0.015
330.0	0.012
330.5	0.012
331.0	0.012
331.5	0.011
332.0	0.011
332.5	0.011
333.0	0.011
333.5	0.010
334.0	0.010
334.5	0.008
335.0	0.005
335.5	0.003
336.0	0.004
336.5	0.005
337.0	0.005
337.5	0.004
338.0	0.003
338.5	0.002
339.0	0.002
339.5	0.001
340.0	0.000
340.5	0.000
341.0	-0.001
341.5	-0.004
342.0	-0.006
342.5	-0.005
343.0	-0.004
343.5	-0.006
344.0	-0.007
344.5	-0.007
345.0	-0.006
345.5	-0.006
346.0	-0.007
346.5	-0.007
347.0	-0.006
347.5	-0.006
348.0	-0.007
348.5	-0.008
349.0	-0.006
349.5	-0.004
350.0	-0.002

