11/17/2020 10:21 PM
Wavelength (nm)	10mm Absorbance
//WLCalib: Shift 	0.05667	
//WLCalib: 261S 	-0.41000	
//WLCalib: 362S 	-0.47000	
//WLCalib: 484S 	0.00000	
//WLCalib: 529S 	0.07000	
//WLCalib: 823S 	-0.52000	
//QSpecEnd: 
220.0	-0.013
220.5	-0.004
221.0	-0.009
221.5	-0.010
222.0	-0.010
222.5	-0.008
223.0	-0.010
223.5	-0.004
224.0	-0.004
224.5	-0.004
225.0	-0.007
225.5	-0.004
226.0	-0.005
226.5	-0.007
227.0	-0.006
227.5	-0.007
228.0	-0.008
228.5	-0.006
229.0	-0.007
229.5	-0.006
230.0	-0.005
230.5	-0.004
231.0	-0.006
231.5	-0.005
232.0	-0.004
232.5	-0.001
233.0	-0.001
233.5	0.001
234.0	0.002
234.5	0.001
235.0	0.004
235.5	0.009
236.0	0.009
236.5	0.011
237.0	0.012
237.5	0.011
238.0	0.012
238.5	0.013
239.0	0.015
239.5	0.015
240.0	0.014
240.5	0.013
241.0	0.012
241.5	0.012
242.0	0.012
242.5	0.010
243.0	0.009
243.5	0.007
244.0	0.007
244.5	0.008
245.0	0.009
245.5	0.010
246.0	0.010
246.5	0.009
247.0	0.009
247.5	0.008
248.0	0.009
248.5	0.010
249.0	0.010
249.5	0.012
250.0	0.013
250.5	0.012
251.0	0.014
251.5	0.014
252.0	0.012
252.5	0.012
253.0	0.010
253.5	0.009
254.0	0.010
254.5	0.010
255.0	0.011
255.5	0.013
256.0	0.012
256.5	0.012
257.0	0.012
257.5	0.010
258.0	0.011
258.5	0.011
259.0	0.011
259.5	0.013
260.0	0.013
260.5	0.011
261.0	0.012
261.5	0.012
262.0	0.010
262.5	0.010
263.0	0.007
263.5	0.006
264.0	0.005
264.5	0.005
265.0	0.006
265.5	0.006
266.0	0.007
266.5	0.006
267.0	0.006
267.5	0.006
268.0	0.008
268.5	0.010
269.0	0.012
269.5	0.015
270.0	0.016
270.5	0.018
271.0	0.019
271.5	0.019
272.0	0.019
272.5	0.020
273.0	0.022
273.5	0.023
274.0	0.024
274.5	0.024
275.0	0.025
275.5	0.025
276.0	0.024
276.5	0.023
277.0	0.022
277.5	0.021
278.0	0.021
278.5	0.021
279.0	0.023
279.5	0.022
280.0	0.021
280.5	0.020
281.0	0.020
281.5	0.022
282.0	0.023
282.5	0.022
283.0	0.022
283.5	0.022
284.0	0.024
284.5	0.024
285.0	0.024
285.5	0.024
286.0	0.024
286.5	0.024
287.0	0.025
287.5	0.025
288.0	0.026
288.5	0.026
289.0	0.024
289.5	0.023
290.0	0.023
290.5	0.022
291.0	0.024
291.5	0.022
292.0	0.022
292.5	0.023
293.0	0.022
293.5	0.024
294.0	0.022
294.5	0.024
295.0	0.024
295.5	0.023
296.0	0.024
296.5	0.023
297.0	0.024
297.5	0.023
298.0	0.023
298.5	0.023
299.0	0.023
299.5	0.023
300.0	0.021
300.5	0.021
301.0	0.021
301.5	0.020
302.0	0.018
302.5	0.017
303.0	0.016
303.5	0.012
304.0	0.011
304.5	0.011
305.0	0.011
305.5	0.012
306.0	0.010
306.5	0.009
307.0	0.009
307.5	0.009
308.0	0.007
308.5	0.005
309.0	0.005
309.5	0.005
310.0	0.005
310.5	0.006
311.0	0.008
311.5	0.008
312.0	0.008
312.5	0.008
313.0	0.007
313.5	0.007
314.0	0.007
314.5	0.007
315.0	0.007
315.5	0.008
316.0	0.011
316.5	0.013
317.0	0.012
317.5	0.010
318.0	0.010
318.5	0.010
319.0	0.010
319.5	0.008
320.0	0.007
320.5	0.009
321.0	0.010
321.5	0.010
322.0	0.009
322.5	0.010
323.0	0.010
323.5	0.009
324.0	0.006
324.5	0.005
325.0	0.007
325.5	0.008
326.0	0.007
326.5	0.008
327.0	0.010
327.5	0.009
328.0	0.008
328.5	0.007
329.0	0.004
329.5	0.004
330.0	0.005
330.5	0.003
331.0	0.003
331.5	0.005
332.0	0.006
332.5	0.007
333.0	0.006
333.5	0.005
334.0	0.004
334.5	0.002
335.0	0.002
335.5	0.001
336.0	0.001
336.5	0.002
337.0	0.005
337.5	0.004
338.0	0.004
338.5	0.003
339.0	0.002
339.5	0.002
340.0	0.000
340.5	0.000
341.0	0.001
341.5	0.002
342.0	0.003
342.5	0.004
343.0	0.006
343.5	0.007
344.0	0.008
344.5	0.008
345.0	0.007
345.5	0.006
346.0	0.007
346.5	0.007
347.0	0.007
347.5	0.008
348.0	0.009
348.5	0.009
349.0	0.007
349.5	0.008
350.0	0.006



11/17/2020 10:21 PM
Wavelength (nm)	10mm Absorbance
//WLCalib: Shift 	0.05667	
//WLCalib: 261S 	-0.41000	
//WLCalib: 362S 	-0.47000	
//WLCalib: 484S 	0.00000	
//WLCalib: 529S 	0.07000	
//WLCalib: 823S 	-0.52000	
//QSpecEnd: 
220.0	0.690
220.5	0.676
221.0	0.665
221.5	0.643
222.0	0.622
222.5	0.598
223.0	0.577
223.5	0.552
224.0	0.527
224.5	0.501
225.0	0.469
225.5	0.453
226.0	0.436
226.5	0.422
227.0	0.413
227.5	0.405
228.0	0.394
228.5	0.384
229.0	0.378
229.5	0.370
230.0	0.362
230.5	0.352
231.0	0.340
231.5	0.330
232.0	0.320
232.5	0.309
233.0	0.292
233.5	0.277
234.0	0.261
234.5	0.241
235.0	0.224
235.5	0.210
236.0	0.194
236.5	0.178
237.0	0.163
237.5	0.146
238.0	0.134
238.5	0.123
239.0	0.112
239.5	0.100
240.0	0.094
240.5	0.088
241.0	0.082
241.5	0.078
242.0	0.075
242.5	0.070
243.0	0.066
243.5	0.062
244.0	0.057
244.5	0.055
245.0	0.055
245.5	0.054
246.0	0.055
246.5	0.054
247.0	0.054
247.5	0.053
248.0	0.054
248.5	0.054
249.0	0.054
249.5	0.055
250.0	0.057
250.5	0.057
251.0	0.060
251.5	0.062
252.0	0.063
252.5	0.065
253.0	0.066
253.5	0.066
254.0	0.068
254.5	0.069
255.0	0.069
255.5	0.069
256.0	0.071
256.5	0.071
257.0	0.069
257.5	0.066
258.0	0.066
258.5	0.064
259.0	0.065
259.5	0.067
260.0	0.068
260.5	0.067
261.0	0.068
261.5	0.069
262.0	0.067
262.5	0.066
263.0	0.066
263.5	0.065
264.0	0.066
264.5	0.069
265.0	0.073
265.5	0.073
266.0	0.075
266.5	0.076
267.0	0.075
267.5	0.074
268.0	0.075
268.5	0.076
269.0	0.077
269.5	0.079
270.0	0.079
270.5	0.080
271.0	0.081
271.5	0.083
272.0	0.084
272.5	0.084
273.0	0.085
273.5	0.085
274.0	0.087
274.5	0.088
275.0	0.089
275.5	0.090
276.0	0.090
276.5	0.089
277.0	0.089
277.5	0.090
278.0	0.090
278.5	0.089
279.0	0.090
279.5	0.089
280.0	0.086
280.5	0.086
281.0	0.084
281.5	0.084
282.0	0.082
282.5	0.081
283.0	0.079
283.5	0.076
284.0	0.075
284.5	0.074
285.0	0.072
285.5	0.070
286.0	0.068
286.5	0.067
287.0	0.066
287.5	0.065
288.0	0.063
288.5	0.062
289.0	0.060
289.5	0.059
290.0	0.056
290.5	0.052
291.0	0.050
291.5	0.045
292.0	0.041
292.5	0.038
293.0	0.037
293.5	0.035
294.0	0.030
294.5	0.027
295.0	0.025
295.5	0.023
296.0	0.022
296.5	0.021
297.0	0.020
297.5	0.018
298.0	0.018
298.5	0.018
299.0	0.017
299.5	0.018
300.0	0.017
300.5	0.017
301.0	0.017
301.5	0.017
302.0	0.017
302.5	0.016
303.0	0.014
303.5	0.012
304.0	0.010
304.5	0.010
305.0	0.010
305.5	0.010
306.0	0.008
306.5	0.009
307.0	0.007
307.5	0.007
308.0	0.004
308.5	0.002
309.0	0.000
309.5	-0.001
310.0	-0.002
310.5	-0.001
311.0	0.000
311.5	-0.001
312.0	-0.002
312.5	-0.002
313.0	-0.003
313.5	-0.002
314.0	-0.001
314.5	0.000
315.0	0.000
315.5	0.001
316.0	0.003
316.5	0.005
317.0	0.007
317.5	0.006
318.0	0.006
318.5	0.006
319.0	0.007
319.5	0.005
320.0	0.005
320.5	0.006
321.0	0.006
321.5	0.004
322.0	0.004
322.5	0.004
323.0	0.005
323.5	0.005
324.0	0.004
324.5	0.001
325.0	0.003
325.5	0.004
326.0	0.003
326.5	0.003
327.0	0.002
327.5	0.002
328.0	0.001
328.5	0.000
329.0	0.000
329.5	0.000
330.0	0.001
330.5	-0.001
331.0	-0.001
331.5	0.000
332.0	0.002
332.5	0.002
333.0	0.000
333.5	0.000
334.0	0.000
334.5	0.000
335.0	0.002
335.5	0.002
336.0	0.003
336.5	0.005
337.0	0.006
337.5	0.005
338.0	0.005
338.5	0.004
339.0	0.003
339.5	0.001
340.0	0.000
340.5	0.001
341.0	0.000
341.5	0.001
342.0	0.002
342.5	0.003
343.0	0.003
343.5	0.003
344.0	0.003
344.5	0.003
345.0	0.002
345.5	0.002
346.0	0.003
346.5	0.002
347.0	0.003
347.5	0.005
348.0	0.005
348.5	0.005
349.0	0.005
349.5	0.005
350.0	0.004



11/17/2020 10:22 PM
Wavelength (nm)	10mm Absorbance
//WLCalib: Shift 	0.05667	
//WLCalib: 261S 	-0.41000	
//WLCalib: 362S 	-0.47000	
//WLCalib: 484S 	0.00000	
//WLCalib: 529S 	0.07000	
//WLCalib: 823S 	-0.52000	
//QSpecEnd: 
220.0	11.111
220.5	11.031
221.0	10.932
221.5	10.760
222.0	10.573
222.5	10.348
223.0	10.119
223.5	9.802
224.0	9.493
224.5	9.111
225.0	8.735
225.5	8.424
226.0	8.165
226.5	7.952
227.0	7.752
227.5	7.559
228.0	7.372
228.5	7.196
229.0	7.019
229.5	6.826
230.0	6.613
230.5	6.385
231.0	6.155
231.5	5.904
232.0	5.625
232.5	5.316
233.0	4.984
233.5	4.651
234.0	4.319
234.5	3.983
235.0	3.656
235.5	3.340
236.0	3.041
236.5	2.770
237.0	2.519
237.5	2.280
238.0	2.051
238.5	1.836
239.0	1.649
239.5	1.498
240.0	1.379
240.5	1.285
241.0	1.210
241.5	1.147
242.0	1.095
242.5	1.047
243.0	1.004
243.5	0.969
244.0	0.940
244.5	0.919
245.0	0.903
245.5	0.890
246.0	0.878
246.5	0.869
247.0	0.861
247.5	0.856
248.0	0.853
248.5	0.852
249.0	0.853
249.5	0.856
250.0	0.859
250.5	0.862
251.0	0.868
251.5	0.874
252.0	0.879
252.5	0.887
253.0	0.895
253.5	0.907
254.0	0.920
254.5	0.933
255.0	0.946
255.5	0.962
256.0	0.981
256.5	0.999
257.0	1.016
257.5	1.033
258.0	1.049
258.5	1.059
259.0	1.069
259.5	1.081
260.0	1.089
260.5	1.096
261.0	1.105
261.5	1.112
262.0	1.118
262.5	1.126
263.0	1.132
263.5	1.143
264.0	1.155
264.5	1.169
265.0	1.183
265.5	1.198
266.0	1.212
266.5	1.224
267.0	1.235
267.5	1.246
268.0	1.260
268.5	1.274
269.0	1.285
269.5	1.297
270.0	1.307
270.5	1.318
271.0	1.326
271.5	1.336
272.0	1.344
272.5	1.354
273.0	1.362
273.5	1.371
274.0	1.378
274.5	1.385
275.0	1.391
275.5	1.397
276.0	1.401
276.5	1.405
277.0	1.408
277.5	1.410
278.0	1.411
278.5	1.411
279.0	1.409
279.5	1.404
280.0	1.397
280.5	1.388
281.0	1.376
281.5	1.364
282.0	1.347
282.5	1.330
283.0	1.307
283.5	1.283
284.0	1.259
284.5	1.237
285.0	1.212
285.5	1.185
286.0	1.157
286.5	1.129
287.0	1.096
287.5	1.061
288.0	1.023
288.5	0.987
289.0	0.948
289.5	0.911
290.0	0.868
290.5	0.824
291.0	0.777
291.5	0.727
292.0	0.678
292.5	0.633
293.0	0.589
293.5	0.546
294.0	0.500
294.5	0.458
295.0	0.418
295.5	0.382
296.0	0.351
296.5	0.324
297.0	0.300
297.5	0.278
298.0	0.257
298.5	0.238
299.0	0.220
299.5	0.203
300.0	0.187
300.5	0.173
301.0	0.159
301.5	0.143
302.0	0.128
302.5	0.115
303.0	0.103
303.5	0.091
304.0	0.081
304.5	0.073
305.0	0.064
305.5	0.059
306.0	0.051
306.5	0.045
307.0	0.038
307.5	0.033
308.0	0.028
308.5	0.023
309.0	0.022
309.5	0.019
310.0	0.017
310.5	0.015
311.0	0.015
311.5	0.013
312.0	0.012
312.5	0.012
313.0	0.011
313.5	0.010
314.0	0.010
314.5	0.010
315.0	0.010
315.5	0.010
316.0	0.011
316.5	0.011
317.0	0.011
317.5	0.009
318.0	0.009
318.5	0.008
319.0	0.008
319.5	0.006
320.0	0.005
320.5	0.005
321.0	0.008
321.5	0.008
322.0	0.006
322.5	0.007
323.0	0.008
323.5	0.007
324.0	0.004
324.5	0.002
325.0	0.004
325.5	0.004
326.0	0.003
326.5	0.003
327.0	0.002
327.5	0.002
328.0	0.002
328.5	-0.002
329.0	-0.003
329.5	-0.003
330.0	-0.004
330.5	-0.003
331.0	-0.002
331.5	0.000
332.0	0.001
332.5	0.001
333.0	0.001
333.5	0.002
334.0	0.001
334.5	0.002
335.0	0.003
335.5	0.001
336.0	0.003
336.5	0.004
337.0	0.005
337.5	0.004
338.0	0.004
338.5	0.003
339.0	0.001
339.5	0.000
340.0	0.000
340.5	0.000
341.0	-0.001
341.5	0.000
342.0	-0.001
342.5	0.000
343.0	0.002
343.5	0.002
344.0	0.002
344.5	0.001
345.0	0.000
345.5	0.000
346.0	0.001
346.5	0.001
347.0	0.002
347.5	0.002
348.0	0.002
348.5	0.002
349.0	0.001
349.5	0.003
350.0	0.002



11/17/2020 10:22 PM
Wavelength (nm)	10mm Absorbance
//WLCalib: Shift 	0.05667	
//WLCalib: 261S 	-0.41000	
//WLCalib: 362S 	-0.47000	
//WLCalib: 484S 	0.00000	
//WLCalib: 529S 	0.07000	
//WLCalib: 823S 	-0.52000	
//QSpecEnd: 
220.0	8.127
220.5	8.917
221.0	9.830
221.5	10.758
222.0	11.591
222.5	12.555
223.0	13.759
223.5	14.973
224.0	16.423
224.5	18.041
225.0	19.743
225.5	20.870
226.0	21.856
226.5	22.432
227.0	22.693
227.5	22.916
228.0	23.070
228.5	22.794
229.0	22.384
229.5	21.926
230.0	21.293
230.5	20.435
231.0	19.536
231.5	18.585
232.0	17.565
232.5	16.524
233.0	15.498
233.5	14.480
234.0	13.514
234.5	12.600
235.0	11.707
235.5	10.860
236.0	10.074
236.5	9.323
237.0	8.589
237.5	7.864
238.0	7.156
238.5	6.499
239.0	5.930
239.5	5.482
240.0	5.136
240.5	4.864
241.0	4.646
241.5	4.460
242.0	4.294
242.5	4.136
243.0	3.988
243.5	3.858
244.0	3.754
244.5	3.674
245.0	3.612
245.5	3.563
246.0	3.520
246.5	3.485
247.0	3.458
247.5	3.440
248.0	3.430
248.5	3.427
249.0	3.431
249.5	3.441
250.0	3.456
250.5	3.473
251.0	3.497
251.5	3.524
252.0	3.556
252.5	3.595
253.0	3.637
253.5	3.688
254.0	3.743
254.5	3.796
255.0	3.853
255.5	3.921
256.0	3.997
256.5	4.081
257.0	4.160
257.5	4.228
258.0	4.289
258.5	4.336
259.0	4.378
259.5	4.416
260.0	4.449
260.5	4.482
261.0	4.513
261.5	4.540
262.0	4.569
262.5	4.599
263.0	4.629
263.5	4.668
264.0	4.714
264.5	4.771
265.0	4.834
265.5	4.894
266.0	4.952
266.5	5.008
267.0	5.062
267.5	5.115
268.0	5.170
268.5	5.223
269.0	5.270
269.5	5.315
270.0	5.357
270.5	5.398
271.0	5.437
271.5	5.476
272.0	5.512
272.5	5.546
273.0	5.579
273.5	5.610
274.0	5.635
274.5	5.660
275.0	5.683
275.5	5.707
276.0	5.729
276.5	5.748
277.0	5.761
277.5	5.768
278.0	5.771
278.5	5.765
279.0	5.753
279.5	5.731
280.0	5.705
280.5	5.674
281.0	5.631
281.5	5.578
282.0	5.506
282.5	5.424
283.0	5.327
283.5	5.227
284.0	5.123
284.5	5.023
285.0	4.922
285.5	4.814
286.0	4.694
286.5	4.562
287.0	4.416
287.5	4.262
288.0	4.104
288.5	3.947
289.0	3.786
289.5	3.622
290.0	3.449
290.5	3.260
291.0	3.058
291.5	2.851
292.0	2.652
292.5	2.467
293.0	2.288
293.5	2.112
294.0	1.939
294.5	1.777
295.0	1.626
295.5	1.490
296.0	1.371
296.5	1.265
297.0	1.175
297.5	1.092
298.0	1.013
298.5	0.939
299.0	0.867
299.5	0.800
300.0	0.738
300.5	0.681
301.0	0.625
301.5	0.567
302.0	0.511
302.5	0.459
303.0	0.412
303.5	0.370
304.0	0.333
304.5	0.298
305.0	0.268
305.5	0.241
306.0	0.214
306.5	0.191
307.0	0.169
307.5	0.150
308.0	0.133
308.5	0.117
309.0	0.104
309.5	0.093
310.0	0.084
310.5	0.078
311.0	0.071
311.5	0.065
312.0	0.059
312.5	0.055
313.0	0.050
313.5	0.048
314.0	0.045
314.5	0.043
315.0	0.042
315.5	0.041
316.0	0.042
316.5	0.042
317.0	0.040
317.5	0.037
318.0	0.035
318.5	0.033
319.0	0.032
319.5	0.030
320.0	0.029
320.5	0.027
321.0	0.028
321.5	0.027
322.0	0.025
322.5	0.023
323.0	0.022
323.5	0.022
324.0	0.020
324.5	0.018
325.0	0.020
325.5	0.019
326.0	0.018
326.5	0.018
327.0	0.018
327.5	0.015
328.0	0.015
328.5	0.013
329.0	0.011
329.5	0.010
330.0	0.012
330.5	0.010
331.0	0.009
331.5	0.010
332.0	0.009
332.5	0.008
333.0	0.008
333.5	0.007
334.0	0.006
334.5	0.006
335.0	0.009
335.5	0.008
336.0	0.008
336.5	0.010
337.0	0.010
337.5	0.008
338.0	0.006
338.5	0.005
339.0	0.003
339.5	0.000
340.0	0.000
340.5	0.000
341.0	-0.001
341.5	-0.002
342.0	-0.003
342.5	-0.004
343.0	-0.003
343.5	-0.003
344.0	-0.004
344.5	-0.004
345.0	-0.004
345.5	-0.003
346.0	-0.003
346.5	-0.003
347.0	-0.001
347.5	0.000
348.0	0.000
348.5	0.000
349.0	0.000
349.5	0.001
350.0	0.000



11/17/2020 10:24 PM
Wavelength (nm)	10mm Absorbance
//WLCalib: Shift 	0.05667	
//WLCalib: 261S 	-0.41000	
//WLCalib: 362S 	-0.47000	
//WLCalib: 484S 	0.00000	
//WLCalib: 529S 	0.07000	
//WLCalib: 823S 	-0.52000	
//QSpecEnd: 
220.0	4.122
220.5	4.963
221.0	5.881
221.5	6.946
222.0	7.998
222.5	9.074
223.0	10.232
223.5	11.581
224.0	13.154
224.5	14.944
225.0	16.778
225.5	18.370
226.0	19.782
226.5	20.862
227.0	21.677
227.5	22.502
228.0	23.141
228.5	23.474
229.0	23.807
229.5	24.012
230.0	23.963
230.5	23.625
231.0	23.095
231.5	22.262
232.0	21.332
232.5	20.238
233.0	19.113
233.5	18.043
234.0	16.975
234.5	15.926
235.0	14.867
235.5	13.874
236.0	12.913
236.5	11.988
237.0	11.086
237.5	10.192
238.0	9.330
238.5	8.513
239.0	7.816
239.5	7.269
240.0	6.856
240.5	6.530
241.0	6.261
241.5	6.028
242.0	5.818
242.5	5.621
243.0	5.428
243.5	5.259
244.0	5.123
244.5	5.017
245.0	4.934
245.5	4.864
246.0	4.810
246.5	4.764
247.0	4.729
247.5	4.705
248.0	4.693
248.5	4.690
249.0	4.698
249.5	4.713
250.0	4.733
250.5	4.760
251.0	4.793
251.5	4.831
252.0	4.879
252.5	4.937
253.0	5.005
253.5	5.076
254.0	5.153
254.5	5.229
255.0	5.311
255.5	5.401
256.0	5.510
256.5	5.633
257.0	5.752
257.5	5.854
258.0	5.938
258.5	6.010
259.0	6.074
259.5	6.130
260.0	6.178
260.5	6.221
261.0	6.266
261.5	6.308
262.0	6.350
262.5	6.395
263.0	6.443
263.5	6.500
264.0	6.565
264.5	6.642
265.0	6.729
265.5	6.812
266.0	6.892
266.5	6.971
267.0	7.047
267.5	7.120
268.0	7.200
268.5	7.276
269.0	7.347
269.5	7.412
270.0	7.471
270.5	7.532
271.0	7.587
271.5	7.643
272.0	7.701
272.5	7.751
273.0	7.801
273.5	7.844
274.0	7.883
274.5	7.920
275.0	7.959
275.5	7.996
276.0	8.025
276.5	8.052
277.0	8.073
277.5	8.087
278.0	8.091
278.5	8.084
279.0	8.066
279.5	8.038
280.0	8.002
280.5	7.957
281.0	7.896
281.5	7.819
282.0	7.720
282.5	7.599
283.0	7.461
283.5	7.315
284.0	7.167
284.5	7.021
285.0	6.871
285.5	6.710
286.0	6.538
286.5	6.352
287.0	6.145
287.5	5.924
288.0	5.698
288.5	5.474
289.0	5.244
289.5	5.009
290.0	4.760
290.5	4.491
291.0	4.204
291.5	3.912
292.0	3.631
292.5	3.373
293.0	3.125
293.5	2.879
294.0	2.638
294.5	2.413
295.0	2.206
295.5	2.020
296.0	1.857
296.5	1.713
297.0	1.588
297.5	1.473
298.0	1.364
298.5	1.260
299.0	1.160
299.5	1.067
300.0	0.981
300.5	0.901
301.0	0.822
301.5	0.743
302.0	0.665
302.5	0.594
303.0	0.530
303.5	0.472
304.0	0.420
304.5	0.372
305.0	0.330
305.5	0.292
306.0	0.257
306.5	0.225
307.0	0.196
307.5	0.171
308.0	0.148
308.5	0.130
309.0	0.113
309.5	0.100
310.0	0.088
310.5	0.077
311.0	0.070
311.5	0.064
312.0	0.059
312.5	0.053
313.0	0.046
313.5	0.041
314.0	0.038
314.5	0.034
315.0	0.031
315.5	0.031
316.0	0.028
316.5	0.029
317.0	0.027
317.5	0.023
318.0	0.022
318.5	0.022
319.0	0.020
319.5	0.017
320.0	0.016
320.5	0.017
321.0	0.019
321.5	0.018
322.0	0.017
322.5	0.018
323.0	0.017
323.5	0.016
324.0	0.013
324.5	0.012
325.0	0.014
325.5	0.014
326.0	0.013
326.5	0.013
327.0	0.013
327.5	0.011
328.0	0.010
328.5	0.007
329.0	0.006
329.5	0.005
330.0	0.004
330.5	0.002
331.0	0.003
331.5	0.003
332.0	0.004
332.5	0.004
333.0	0.002
333.5	0.002
334.0	0.001
334.5	0.000
335.0	0.002
335.5	0.001
336.0	0.003
336.5	0.003
337.0	0.006
337.5	0.005
338.0	0.004
338.5	0.004
339.0	0.003
339.5	0.001
340.0	0.000
340.5	0.001
341.0	0.001
341.5	0.001
342.0	0.002
342.5	0.002
343.0	0.004
343.5	0.004
344.0	0.003
344.5	0.003
345.0	0.002
345.5	0.001
346.0	0.001
346.5	0.001
347.0	0.002
347.5	0.003
348.0	0.003
348.5	0.004
349.0	0.002
349.5	0.003
350.0	0.001



11/17/2020 10:25 PM
Wavelength (nm)	10mm Absorbance
//WLCalib: Shift 	0.05667	
//WLCalib: 261S 	-0.41000	
//WLCalib: 362S 	-0.47000	
//WLCalib: 484S 	0.00000	
//WLCalib: 529S 	0.07000	
//WLCalib: 823S 	-0.52000	
//QSpecEnd: 
220.0	8.078
220.5	9.003
221.0	9.866
221.5	10.626
222.0	11.613
222.5	12.491
223.0	13.659
223.5	14.874
224.0	16.243
224.5	17.877
225.0	19.383
225.5	20.733
226.0	21.644
226.5	22.270
227.0	22.816
227.5	23.152
228.0	23.230
228.5	23.090
229.0	22.879
229.5	22.253
230.0	21.556
230.5	20.599
231.0	19.657
231.5	18.710
232.0	17.686
232.5	16.593
233.0	15.504
233.5	14.480
234.0	13.508
234.5	12.547
235.0	11.647
235.5	10.802
236.0	10.005
236.5	9.243
237.0	8.516
237.5	7.790
238.0	7.086
238.5	6.436
239.0	5.873
239.5	5.423
240.0	5.082
240.5	4.813
241.0	4.594
241.5	4.409
242.0	4.244
242.5	4.090
243.0	3.943
243.5	3.815
244.0	3.716
244.5	3.638
245.0	3.576
245.5	3.528
246.0	3.486
246.5	3.452
247.0	3.425
247.5	3.407
248.0	3.398
248.5	3.397
249.0	3.402
249.5	3.413
250.0	3.426
250.5	3.445
251.0	3.467
251.5	3.490
252.0	3.523
252.5	3.564
253.0	3.607
253.5	3.657
254.0	3.711
254.5	3.765
255.0	3.824
255.5	3.888
256.0	3.962
256.5	4.043
257.0	4.122
257.5	4.191
258.0	4.249
258.5	4.296
259.0	4.337
259.5	4.371
260.0	4.405
260.5	4.438
261.0	4.468
261.5	4.500
262.0	4.529
262.5	4.557
263.0	4.587
263.5	4.625
264.0	4.670
264.5	4.727
265.0	4.790
265.5	4.848
266.0	4.907
266.5	4.964
267.0	5.020
267.5	5.071
268.0	5.121
268.5	5.172
269.0	5.215
269.5	5.258
270.0	5.301
270.5	5.343
271.0	5.383
271.5	5.423
272.0	5.460
272.5	5.495
273.0	5.528
273.5	5.557
274.0	5.585
274.5	5.609
275.0	5.630
275.5	5.655
276.0	5.677
276.5	5.699
277.0	5.713
277.5	5.723
278.0	5.725
278.5	5.720
279.0	5.708
279.5	5.691
280.0	5.665
280.5	5.632
281.0	5.589
281.5	5.534
282.0	5.466
282.5	5.387
283.0	5.294
283.5	5.196
284.0	5.092
284.5	4.989
285.0	4.885
285.5	4.774
286.0	4.655
286.5	4.526
287.0	4.380
287.5	4.224
288.0	4.067
288.5	3.912
289.0	3.753
289.5	3.591
290.0	3.417
290.5	3.231
291.0	3.029
291.5	2.823
292.0	2.627
292.5	2.444
293.0	2.267
293.5	2.092
294.0	1.919
294.5	1.756
295.0	1.605
295.5	1.470
296.0	1.351
296.5	1.246
297.0	1.154
297.5	1.071
298.0	0.993
298.5	0.918
299.0	0.846
299.5	0.779
300.0	0.719
300.5	0.663
301.0	0.607
301.5	0.550
302.0	0.495
302.5	0.442
303.0	0.395
303.5	0.353
304.0	0.315
304.5	0.280
305.0	0.250
305.5	0.222
306.0	0.196
306.5	0.173
307.0	0.151
307.5	0.132
308.0	0.114
308.5	0.098
309.0	0.086
309.5	0.077
310.0	0.069
310.5	0.062
311.0	0.057
311.5	0.054
312.0	0.049
312.5	0.045
313.0	0.041
313.5	0.037
314.0	0.035
314.5	0.032
315.0	0.030
315.5	0.030
316.0	0.031
316.5	0.031
317.0	0.029
317.5	0.025
318.0	0.025
318.5	0.023
319.0	0.020
319.5	0.017
320.0	0.018
320.5	0.018
321.0	0.018
321.5	0.017
322.0	0.017
322.5	0.017
323.0	0.016
323.5	0.014
324.0	0.013
324.5	0.011
325.0	0.012
325.5	0.012
326.0	0.010
326.5	0.010
327.0	0.011
327.5	0.008
328.0	0.008
328.5	0.006
329.0	0.004
329.5	0.003
330.0	0.002
330.5	0.002
331.0	0.002
331.5	0.002
332.0	0.002
332.5	0.003
333.0	0.002
333.5	0.002
334.0	0.002
334.5	0.002
335.0	0.004
335.5	0.003
336.0	0.004
336.5	0.006
337.0	0.008
337.5	0.007
338.0	0.006
338.5	0.006
339.0	0.005
339.5	0.001
340.0	0.000
340.5	0.000
341.0	-0.001
341.5	-0.001
342.0	-0.001
342.5	-0.001
343.0	-0.001
343.5	-0.002
344.0	-0.003
344.5	-0.003
345.0	-0.004
345.5	-0.004
346.0	-0.004
346.5	-0.004
347.0	-0.001
347.5	0.000
348.0	0.000
348.5	0.001
349.0	0.001
349.5	0.002
350.0	0.001



11/17/2020 10:25 PM
Wavelength (nm)	10mm Absorbance
//WLCalib: Shift 	0.05667	
//WLCalib: 261S 	-0.41000	
//WLCalib: 362S 	-0.47000	
//WLCalib: 484S 	0.00000	
//WLCalib: 529S 	0.07000	
//WLCalib: 823S 	-0.52000	
//QSpecEnd: 
220.0	14.071
220.5	14.546
221.0	14.889
221.5	15.355
222.0	15.535
222.5	15.615
223.0	15.577
223.5	15.457
224.0	15.168
224.5	14.768
225.0	14.332
225.5	13.943
226.0	13.607
226.5	13.320
227.0	13.001
227.5	12.685
228.0	12.373
228.5	12.069
229.0	11.750
229.5	11.401
230.0	11.008
230.5	10.588
231.0	10.149
231.5	9.696
232.0	9.203
232.5	8.663
233.0	8.097
233.5	7.540
234.0	6.994
234.5	6.459
235.0	5.946
235.5	5.456
236.0	4.997
236.5	4.577
237.0	4.182
237.5	3.796
238.0	3.426
238.5	3.083
239.0	2.786
239.5	2.548
240.0	2.366
240.5	2.221
241.0	2.105
241.5	2.008
242.0	1.926
242.5	1.849
243.0	1.782
243.5	1.725
244.0	1.680
244.5	1.645
245.0	1.619
245.5	1.597
246.0	1.579
246.5	1.564
247.0	1.551
247.5	1.542
248.0	1.538
248.5	1.537
249.0	1.541
249.5	1.546
250.0	1.553
250.5	1.559
251.0	1.567
251.5	1.576
252.0	1.587
252.5	1.602
253.0	1.620
253.5	1.643
254.0	1.666
254.5	1.690
255.0	1.713
255.5	1.739
256.0	1.770
256.5	1.798
257.0	1.829
257.5	1.855
258.0	1.878
258.5	1.897
259.0	1.913
259.5	1.929
260.0	1.944
260.5	1.955
261.0	1.968
261.5	1.979
262.0	1.991
262.5	2.003
263.0	2.015
263.5	2.029
264.0	2.049
264.5	2.072
265.0	2.096
265.5	2.118
266.0	2.142
266.5	2.165
267.0	2.186
267.5	2.207
268.0	2.229
268.5	2.250
269.0	2.273
269.5	2.292
270.0	2.312
270.5	2.329
271.0	2.345
271.5	2.363
272.0	2.377
272.5	2.394
273.0	2.409
273.5	2.421
274.0	2.431
274.5	2.440
275.0	2.448
275.5	2.457
276.0	2.465
276.5	2.470
277.0	2.474
277.5	2.474
278.0	2.474
278.5	2.473
279.0	2.468
279.5	2.460
280.0	2.447
280.5	2.432
281.0	2.413
281.5	2.393
282.0	2.363
282.5	2.330
283.0	2.292
283.5	2.251
284.0	2.208
284.5	2.165
285.0	2.120
285.5	2.074
286.0	2.021
286.5	1.966
287.0	1.904
287.5	1.839
288.0	1.774
288.5	1.710
289.0	1.640
289.5	1.572
290.0	1.500
290.5	1.422
291.0	1.339
291.5	1.251
292.0	1.167
292.5	1.090
293.0	1.012
293.5	0.936
294.0	0.860
294.5	0.789
295.0	0.723
295.5	0.660
296.0	0.605
296.5	0.559
297.0	0.519
297.5	0.482
298.0	0.448
298.5	0.414
299.0	0.381
299.5	0.352
300.0	0.325
300.5	0.300
301.0	0.276
301.5	0.249
302.0	0.224
302.5	0.200
303.0	0.180
303.5	0.161
304.0	0.144
304.5	0.127
305.0	0.113
305.5	0.101
306.0	0.089
306.5	0.080
307.0	0.070
307.5	0.062
308.0	0.052
308.5	0.044
309.0	0.040
309.5	0.035
310.0	0.030
310.5	0.028
311.0	0.026
311.5	0.025
312.0	0.023
312.5	0.022
313.0	0.018
313.5	0.016
314.0	0.016
314.5	0.014
315.0	0.014
315.5	0.016
316.0	0.019
316.5	0.020
317.0	0.020
317.5	0.017
318.0	0.016
318.5	0.014
319.0	0.014
319.5	0.012
320.0	0.010
320.5	0.012
321.0	0.013
321.5	0.012
322.0	0.009
322.5	0.007
323.0	0.006
323.5	0.005
324.0	0.003
324.5	0.001
325.0	0.004
325.5	0.004
326.0	0.004
326.5	0.003
327.0	0.004
327.5	0.004
328.0	0.003
328.5	0.002
329.0	0.001
329.5	0.002
330.0	0.005
330.5	0.004
331.0	0.003
331.5	0.004
332.0	0.006
332.5	0.004
333.0	0.003
333.5	0.004
334.0	0.003
334.5	0.002
335.0	0.004
335.5	0.003
336.0	0.003
336.5	0.005
337.0	0.005
337.5	0.003
338.0	0.001
338.5	0.002
339.0	0.001
339.5	-0.001
340.0	0.000
340.5	0.001
341.0	0.000
341.5	0.000
342.0	0.001
342.5	0.000
343.0	0.000
343.5	0.001
344.0	0.001
344.5	0.001
345.0	0.001
345.5	0.001
346.0	0.000
346.5	-0.001
347.0	0.000
347.5	0.001
348.0	0.001
348.5	0.002
349.0	0.001
349.5	0.002
350.0	0.001



11/17/2020 10:26 PM
Wavelength (nm)	10mm Absorbance
//WLCalib: Shift 	0.05667	
//WLCalib: 261S 	-0.41000	
//WLCalib: 362S 	-0.47000	
//WLCalib: 484S 	0.00000	
//WLCalib: 529S 	0.07000	
//WLCalib: 823S 	-0.52000	
//QSpecEnd: 
220.0	8.186
220.5	8.130
221.0	8.010
221.5	7.864
222.0	7.723
222.5	7.559
223.0	7.392
223.5	7.185
224.0	6.938
224.5	6.663
225.0	6.384
225.5	6.156
226.0	5.974
226.5	5.824
227.0	5.686
227.5	5.549
228.0	5.416
228.5	5.295
229.0	5.175
229.5	5.049
230.0	4.907
230.5	4.756
231.0	4.598
231.5	4.429
232.0	4.241
232.5	4.028
233.0	3.798
233.5	3.565
234.0	3.328
234.5	3.090
235.0	2.855
235.5	2.628
236.0	2.412
236.5	2.218
237.0	2.033
237.5	1.862
238.0	1.700
238.5	1.546
239.0	1.415
239.5	1.308
240.0	1.226
240.5	1.161
241.0	1.108
241.5	1.065
242.0	1.029
242.5	0.995
243.0	0.972
243.5	0.950
244.0	0.933
244.5	0.920
245.0	0.910
245.5	0.904
246.0	0.899
246.5	0.894
247.0	0.889
247.5	0.888
248.0	0.888
248.5	0.889
249.0	0.892
249.5	0.895
250.0	0.899
250.5	0.900
251.0	0.905
251.5	0.908
252.0	0.915
252.5	0.922
253.0	0.929
253.5	0.934
254.0	0.944
254.5	0.953
255.0	0.960
255.5	0.969
256.0	0.978
256.5	0.985
257.0	0.994
257.5	1.000
258.0	1.007
258.5	1.012
259.0	1.016
259.5	1.020
260.0	1.022
260.5	1.023
261.0	1.027
261.5	1.029
262.0	1.030
262.5	1.033
263.0	1.033
263.5	1.038
264.0	1.042
264.5	1.050
265.0	1.056
265.5	1.061
266.0	1.069
266.5	1.077
267.0	1.085
267.5	1.093
268.0	1.102
268.5	1.109
269.0	1.117
269.5	1.125
270.0	1.131
270.5	1.138
271.0	1.143
271.5	1.149
272.0	1.154
272.5	1.159
273.0	1.164
273.5	1.168
274.0	1.171
274.5	1.173
275.0	1.175
275.5	1.178
276.0	1.179
276.5	1.179
277.0	1.178
277.5	1.177
278.0	1.175
278.5	1.171
279.0	1.170
279.5	1.165
280.0	1.157
280.5	1.148
281.0	1.136
281.5	1.124
282.0	1.108
282.5	1.092
283.0	1.072
283.5	1.051
284.0	1.030
284.5	1.009
285.0	0.987
285.5	0.965
286.0	0.940
286.5	0.913
287.0	0.884
287.5	0.853
288.0	0.824
288.5	0.794
289.0	0.763
289.5	0.731
290.0	0.695
290.5	0.658
291.0	0.619
291.5	0.577
292.0	0.537
292.5	0.502
293.0	0.467
293.5	0.433
294.0	0.397
294.5	0.364
295.0	0.331
295.5	0.302
296.0	0.278
296.5	0.257
297.0	0.239
297.5	0.224
298.0	0.208
298.5	0.194
299.0	0.180
299.5	0.169
300.0	0.156
300.5	0.146
301.0	0.134
301.5	0.124
302.0	0.113
302.5	0.103
303.0	0.094
303.5	0.085
304.0	0.076
304.5	0.067
305.0	0.060
305.5	0.055
306.0	0.049
306.5	0.045
307.0	0.039
307.5	0.035
308.0	0.030
308.5	0.025
309.0	0.022
309.5	0.020
310.0	0.017
310.5	0.017
311.0	0.015
311.5	0.014
312.0	0.014
312.5	0.013
313.0	0.012
313.5	0.012
314.0	0.012
314.5	0.012
315.0	0.012
315.5	0.013
316.0	0.015
316.5	0.014
317.0	0.014
317.5	0.013
318.0	0.011
318.5	0.010
319.0	0.011
319.5	0.009
320.0	0.008
320.5	0.009
321.0	0.009
321.5	0.008
322.0	0.007
322.5	0.006
323.0	0.008
323.5	0.008
324.0	0.008
324.5	0.006
325.0	0.009
325.5	0.010
326.0	0.008
326.5	0.010
327.0	0.010
327.5	0.009
328.0	0.009
328.5	0.008
329.0	0.007
329.5	0.006
330.0	0.008
330.5	0.005
331.0	0.003
331.5	0.004
332.0	0.005
332.5	0.004
333.0	0.003
333.5	0.004
334.0	0.004
334.5	0.004
335.0	0.006
335.5	0.004
336.0	0.005
336.5	0.006
337.0	0.007
337.5	0.006
338.0	0.005
338.5	0.004
339.0	0.003
339.5	0.001
340.0	0.000
340.5	0.000
341.0	0.000
341.5	0.000
342.0	-0.001
342.5	-0.002
343.0	-0.001
343.5	-0.001
344.0	-0.002
344.5	-0.001
345.0	-0.002
345.5	0.000
346.0	0.000
346.5	-0.001
347.0	0.000
347.5	0.001
348.0	0.002
348.5	0.003
349.0	0.001
349.5	0.004
350.0	0.003



11/17/2020 10:28 PM
Wavelength (nm)	10mm Absorbance
//WLCalib: Shift 	0.05667	
//WLCalib: 261S 	-0.41000	
//WLCalib: 362S 	-0.47000	
//WLCalib: 484S 	0.00000	
//WLCalib: 529S 	0.07000	
//WLCalib: 823S 	-0.52000	
//QSpecEnd: 
220.0	0.032
220.5	0.031
221.0	0.030
221.5	0.026
222.0	0.020
222.5	0.019
223.0	0.019
223.5	0.016
224.0	0.011
224.5	0.005
225.0	-0.001
225.5	-0.002
226.0	-0.006
226.5	-0.009
227.0	-0.012
227.5	-0.012
228.0	-0.013
228.5	-0.014
229.0	-0.013
229.5	-0.013
230.0	-0.014
230.5	-0.013
231.0	-0.014
231.5	-0.013
232.0	-0.011
232.5	-0.008
233.0	-0.007
233.5	-0.005
234.0	-0.002
234.5	0.002
235.0	0.004
235.5	0.009
236.0	0.011
236.5	0.011
237.0	0.014
237.5	0.016
238.0	0.017
238.5	0.017
239.0	0.015
239.5	0.014
240.0	0.015
240.5	0.014
241.0	0.014
241.5	0.012
242.0	0.012
242.5	0.010
243.0	0.009
243.5	0.009
244.0	0.008
244.5	0.008
245.0	0.009
245.5	0.009
246.0	0.010
246.5	0.011
247.0	0.010
247.5	0.010
248.0	0.011
248.5	0.010
249.0	0.012
249.5	0.012
250.0	0.012
250.5	0.012
251.0	0.012
251.5	0.013
252.0	0.012
252.5	0.014
253.0	0.012
253.5	0.011
254.0	0.010
254.5	0.011
255.0	0.012
255.5	0.011
256.0	0.011
256.5	0.009
257.0	0.009
257.5	0.006
258.0	0.006
258.5	0.007
259.0	0.007
259.5	0.008
260.0	0.007
260.5	0.006
261.0	0.007
261.5	0.007
262.0	0.006
262.5	0.006
263.0	0.005
263.5	0.005
264.0	0.004
264.5	0.003
265.0	0.006
265.5	0.003
266.0	0.002
266.5	0.001
267.0	0.001
267.5	0.000
268.0	0.002
268.5	0.003
269.0	0.004
269.5	0.006
270.0	0.006
270.5	0.005
271.0	0.004
271.5	0.005
272.0	0.006
272.5	0.007
273.0	0.009
273.5	0.010
274.0	0.012
274.5	0.012
275.0	0.014
275.5	0.015
276.0	0.015
276.5	0.014
277.0	0.013
277.5	0.015
278.0	0.015
278.5	0.016
279.0	0.019
279.5	0.018
280.0	0.016
280.5	0.015
281.0	0.014
281.5	0.014
282.0	0.014
282.5	0.012
283.0	0.009
283.5	0.008
284.0	0.009
284.5	0.009
285.0	0.008
285.5	0.007
286.0	0.006
286.5	0.005
287.0	0.007
287.5	0.008
288.0	0.009
288.5	0.010
289.0	0.008
289.5	0.007
290.0	0.006
290.5	0.005
291.0	0.006
291.5	0.005
292.0	0.004
292.5	0.005
293.0	0.005
293.5	0.007
294.0	0.008
294.5	0.009
295.0	0.009
295.5	0.010
296.0	0.011
296.5	0.012
297.0	0.013
297.5	0.015
298.0	0.016
298.5	0.016
299.0	0.016
299.5	0.018
300.0	0.017
300.5	0.018
301.0	0.017
301.5	0.017
302.0	0.016
302.5	0.014
303.0	0.013
303.5	0.011
304.0	0.009
304.5	0.008
305.0	0.006
305.5	0.006
306.0	0.004
306.5	0.004
307.0	0.003
307.5	0.003
308.0	0.001
308.5	0.000
309.0	-0.001
309.5	-0.002
310.0	-0.001
310.5	0.001
311.0	0.002
311.5	0.003
312.0	0.005
312.5	0.004
313.0	0.004
313.5	0.005
314.0	0.006
314.5	0.006
315.0	0.005
315.5	0.005
316.0	0.005
316.5	0.007
317.0	0.005
317.5	0.003
318.0	0.002
318.5	0.001
319.0	0.001
319.5	-0.001
320.0	-0.001
320.5	-0.001
321.0	-0.001
321.5	-0.002
322.0	-0.001
322.5	0.000
323.0	0.002
323.5	0.003
324.0	0.002
324.5	0.003
325.0	0.005
325.5	0.005
326.0	0.004
326.5	0.005
327.0	0.004
327.5	0.002
328.0	0.003
328.5	0.001
329.0	0.000
329.5	-0.001
330.0	0.000
330.5	-0.002
331.0	-0.002
331.5	0.001
332.0	0.001
332.5	0.001
333.0	0.001
333.5	0.002
334.0	0.002
334.5	0.002
335.0	0.003
335.5	0.002
336.0	0.003
336.5	0.004
337.0	0.005
337.5	0.004
338.0	0.004
338.5	0.004
339.0	0.002
339.5	0.000
340.0	0.000
340.5	0.001
341.0	0.000
341.5	-0.001
342.0	-0.001
342.5	0.000
343.0	0.000
343.5	0.001
344.0	0.002
344.5	0.003
345.0	0.002
345.5	0.002
346.0	0.003
346.5	0.004
347.0	0.005
347.5	0.006
348.0	0.006
348.5	0.007
349.0	0.007
349.5	0.009
350.0	0.008



11/17/2020 10:29 PM
Wavelength (nm)	10mm Absorbance
//WLCalib: Shift 	0.05667	
//WLCalib: 261S 	-0.41000	
//WLCalib: 362S 	-0.47000	
//WLCalib: 484S 	0.00000	
//WLCalib: 529S 	0.07000	
//WLCalib: 823S 	-0.52000	
//QSpecEnd: 
220.0	0.112
220.5	0.102
221.0	0.097
221.5	0.090
222.0	0.077
222.5	0.067
223.0	0.066
223.5	0.057
224.0	0.053
224.5	0.050
225.0	0.042
225.5	0.042
226.0	0.042
226.5	0.040
227.0	0.038
227.5	0.038
228.0	0.037
228.5	0.037
229.0	0.035
229.5	0.036
230.0	0.036
230.5	0.034
231.0	0.032
231.5	0.032
232.0	0.033
232.5	0.036
233.0	0.036
233.5	0.036
234.0	0.035
234.5	0.034
235.0	0.034
235.5	0.036
236.0	0.037
236.5	0.039
237.0	0.039
237.5	0.038
238.0	0.039
238.5	0.042
239.0	0.041
239.5	0.039
240.0	0.037
240.5	0.035
241.0	0.033
241.5	0.031
242.0	0.031
242.5	0.029
243.0	0.027
243.5	0.026
244.0	0.024
244.5	0.023
245.0	0.024
245.5	0.025
246.0	0.025
246.5	0.024
247.0	0.023
247.5	0.022
248.0	0.023
248.5	0.023
249.0	0.024
249.5	0.025
250.0	0.025
250.5	0.023
251.0	0.024
251.5	0.024
252.0	0.024
252.5	0.023
253.0	0.021
253.5	0.020
254.0	0.021
254.5	0.021
255.0	0.021
255.5	0.022
256.0	0.022
256.5	0.020
257.0	0.018
257.5	0.017
258.0	0.018
258.5	0.017
259.0	0.017
259.5	0.018
260.0	0.018
260.5	0.017
261.0	0.018
261.5	0.017
262.0	0.016
262.5	0.015
263.0	0.012
263.5	0.012
264.0	0.012
264.5	0.012
265.0	0.013
265.5	0.011
266.0	0.012
266.5	0.012
267.0	0.014
267.5	0.015
268.0	0.016
268.5	0.017
269.0	0.019
269.5	0.020
270.0	0.020
270.5	0.021
271.0	0.020
271.5	0.020
272.0	0.020
272.5	0.021
273.0	0.022
273.5	0.022
274.0	0.023
274.5	0.022
275.0	0.022
275.5	0.022
276.0	0.023
276.5	0.022
277.0	0.020
277.5	0.020
278.0	0.021
278.5	0.023
279.0	0.026
279.5	0.025
280.0	0.023
280.5	0.023
281.0	0.022
281.5	0.021
282.0	0.021
282.5	0.022
283.0	0.020
283.5	0.019
284.0	0.018
284.5	0.020
285.0	0.019
285.5	0.018
286.0	0.017
286.5	0.016
287.0	0.017
287.5	0.018
288.0	0.018
288.5	0.020
289.0	0.020
289.5	0.021
290.0	0.020
290.5	0.020
291.0	0.020
291.5	0.020
292.0	0.019
292.5	0.018
293.0	0.018
293.5	0.019
294.0	0.019
294.5	0.020
295.0	0.020
295.5	0.021
296.0	0.021
296.5	0.021
297.0	0.020
297.5	0.020
298.0	0.021
298.5	0.020
299.0	0.020
299.5	0.021
300.0	0.020
300.5	0.021
301.0	0.021
301.5	0.020
302.0	0.019
302.5	0.017
303.0	0.015
303.5	0.013
304.0	0.010
304.5	0.009
305.0	0.008
305.5	0.008
306.0	0.007
306.5	0.006
307.0	0.004
307.5	0.004
308.0	0.002
308.5	0.000
309.0	0.000
309.5	-0.001
310.0	0.000
310.5	0.001
311.0	0.002
311.5	0.005
312.0	0.006
312.5	0.007
313.0	0.005
313.5	0.005
314.0	0.005
314.5	0.006
315.0	0.007
315.5	0.010
316.0	0.012
316.5	0.012
317.0	0.012
317.5	0.011
318.0	0.011
318.5	0.010
319.0	0.008
319.5	0.004
320.0	0.004
320.5	0.006
321.0	0.008
321.5	0.008
322.0	0.007
322.5	0.007
323.0	0.008
323.5	0.008
324.0	0.008
324.5	0.007
325.0	0.009
325.5	0.009
326.0	0.010
326.5	0.011
327.0	0.012
327.5	0.011
328.0	0.011
328.5	0.009
329.0	0.008
329.5	0.007
330.0	0.008
330.5	0.007
331.0	0.007
331.5	0.008
332.0	0.010
332.5	0.009
333.0	0.008
333.5	0.006
334.0	0.007
334.5	0.006
335.0	0.007
335.5	0.006
336.0	0.006
336.5	0.007
337.0	0.008
337.5	0.007
338.0	0.005
338.5	0.005
339.0	0.004
339.5	0.000
340.0	0.000
340.5	0.000
341.0	-0.001
341.5	0.000
342.0	0.001
342.5	0.002
343.0	0.003
343.5	0.003
344.0	0.004
344.5	0.004
345.0	0.005
345.5	0.006
346.0	0.007
346.5	0.007
347.0	0.010
347.5	0.011
348.0	0.013
348.5	0.015
349.0	0.015
349.5	0.015
350.0	0.014



11/17/2020 10:30 PM
Wavelength (nm)	10mm Absorbance
//WLCalib: Shift 	0.05667	
//WLCalib: 261S 	-0.41000	
//WLCalib: 362S 	-0.47000	
//WLCalib: 484S 	0.00000	
//WLCalib: 529S 	0.07000	
//WLCalib: 823S 	-0.52000	
//QSpecEnd: 
220.0	1.046
220.5	1.019
221.0	0.991
221.5	0.958
222.0	0.927
222.5	0.894
223.0	0.872
223.5	0.837
224.0	0.804
224.5	0.768
225.0	0.731
225.5	0.705
226.0	0.682
226.5	0.662
227.0	0.647
227.5	0.632
228.0	0.617
228.5	0.605
229.0	0.592
229.5	0.579
230.0	0.567
230.5	0.552
231.0	0.537
231.5	0.521
232.0	0.504
232.5	0.486
233.0	0.464
233.5	0.442
234.0	0.419
234.5	0.394
235.0	0.371
235.5	0.348
236.0	0.324
236.5	0.304
237.0	0.282
237.5	0.259
238.0	0.240
238.5	0.223
239.0	0.204
239.5	0.188
240.0	0.175
240.5	0.164
241.0	0.155
241.5	0.148
242.0	0.144
242.5	0.137
243.0	0.133
243.5	0.126
244.0	0.122
244.5	0.121
245.0	0.119
245.5	0.118
246.0	0.118
246.5	0.117
247.0	0.117
247.5	0.116
248.0	0.116
248.5	0.116
249.0	0.117
249.5	0.117
250.0	0.117
250.5	0.116
251.0	0.118
251.5	0.119
252.0	0.119
252.5	0.120
253.0	0.121
253.5	0.119
254.0	0.119
254.5	0.119
255.0	0.121
255.5	0.123
256.0	0.124
256.5	0.123
257.0	0.121
257.5	0.120
258.0	0.121
258.5	0.120
259.0	0.119
259.5	0.120
260.0	0.121
260.5	0.120
261.0	0.121
261.5	0.121
262.0	0.121
262.5	0.120
263.0	0.118
263.5	0.118
264.0	0.117
264.5	0.119
265.0	0.121
265.5	0.119
266.0	0.120
266.5	0.121
267.0	0.120
267.5	0.119
268.0	0.119
268.5	0.118
269.0	0.120
269.5	0.121
270.0	0.121
270.5	0.121
271.0	0.120
271.5	0.120
272.0	0.120
272.5	0.120
273.0	0.121
273.5	0.122
274.0	0.122
274.5	0.123
275.0	0.123
275.5	0.123
276.0	0.124
276.5	0.121
277.0	0.120
277.5	0.120
278.0	0.120
278.5	0.120
279.0	0.119
279.5	0.118
280.0	0.116
280.5	0.114
281.0	0.112
281.5	0.111
282.0	0.109
282.5	0.109
283.0	0.106
283.5	0.102
284.0	0.101
284.5	0.100
285.0	0.096
285.5	0.094
286.0	0.092
286.5	0.090
287.0	0.089
287.5	0.087
288.0	0.084
288.5	0.081
289.0	0.077
289.5	0.073
290.0	0.069
290.5	0.065
291.0	0.064
291.5	0.060
292.0	0.055
292.5	0.053
293.0	0.050
293.5	0.048
294.0	0.043
294.5	0.041
295.0	0.038
295.5	0.037
296.0	0.035
296.5	0.033
297.0	0.033
297.5	0.032
298.0	0.031
298.5	0.028
299.0	0.026
299.5	0.026
300.0	0.025
300.5	0.024
301.0	0.024
301.5	0.023
302.0	0.023
302.5	0.022
303.0	0.020
303.5	0.018
304.0	0.016
304.5	0.013
305.0	0.012
305.5	0.012
306.0	0.011
306.5	0.011
307.0	0.010
307.5	0.010
308.0	0.006
308.5	0.003
309.0	0.004
309.5	0.002
310.0	0.002
310.5	0.003
311.0	0.003
311.5	0.003
312.0	0.005
312.5	0.005
313.0	0.003
313.5	0.004
314.0	0.004
314.5	0.003
315.0	0.002
315.5	0.003
316.0	0.006
316.5	0.007
317.0	0.007
317.5	0.005
318.0	0.005
318.5	0.005
319.0	0.005
319.5	0.003
320.0	0.002
320.5	0.003
321.0	0.003
321.5	0.003
322.0	0.003
322.5	0.004
323.0	0.005
323.5	0.005
324.0	0.004
324.5	0.002
325.0	0.003
325.5	0.003
326.0	0.003
326.5	0.005
327.0	0.006
327.5	0.005
328.0	0.004
328.5	0.003
329.0	0.002
329.5	0.001
330.0	0.001
330.5	0.001
331.0	0.001
331.5	0.001
332.0	0.003
332.5	0.004
333.0	0.003
333.5	0.002
334.0	0.001
334.5	0.000
335.0	0.003
335.5	0.003
336.0	0.004
336.5	0.005
337.0	0.006
337.5	0.005
338.0	0.004
338.5	0.004
339.0	0.003
339.5	0.000
340.0	0.000
340.5	0.000
341.0	0.000
341.5	0.000
342.0	0.000
342.5	-0.001
343.0	-0.001
343.5	-0.002
344.0	-0.002
344.5	-0.001
345.0	-0.002
345.5	-0.001
346.0	-0.001
346.5	-0.002
347.0	-0.001
347.5	-0.001
348.0	0.000
348.5	0.000
349.0	-0.001
349.5	0.001
350.0	0.000



11/17/2020 10:30 PM
Wavelength (nm)	10mm Absorbance
//WLCalib: Shift 	0.05667	
//WLCalib: 261S 	-0.41000	
//WLCalib: 362S 	-0.47000	
//WLCalib: 484S 	0.00000	
//WLCalib: 529S 	0.07000	
//WLCalib: 823S 	-0.52000	
//QSpecEnd: 
220.0	6.338
220.5	6.206
221.0	6.039
221.5	5.877
222.0	5.723
222.5	5.561
223.0	5.395
223.5	5.202
224.0	4.989
224.5	4.753
225.0	4.530
225.5	4.357
226.0	4.217
226.5	4.105
227.0	4.003
227.5	3.908
228.0	3.816
228.5	3.734
229.0	3.650
229.5	3.563
230.0	3.468
230.5	3.366
231.0	3.260
231.5	3.148
232.0	3.023
232.5	2.882
233.0	2.725
233.5	2.561
234.0	2.394
234.5	2.223
235.0	2.052
235.5	1.888
236.0	1.731
236.5	1.590
237.0	1.455
237.5	1.326
238.0	1.203
238.5	1.089
239.0	0.988
239.5	0.904
240.0	0.841
240.5	0.789
241.0	0.751
241.5	0.719
242.0	0.692
242.5	0.666
243.0	0.643
243.5	0.624
244.0	0.608
244.5	0.596
245.0	0.588
245.5	0.582
246.0	0.577
246.5	0.572
247.0	0.568
247.5	0.565
248.0	0.564
248.5	0.563
249.0	0.564
249.5	0.565
250.0	0.568
250.5	0.570
251.0	0.574
251.5	0.576
252.0	0.580
252.5	0.584
253.0	0.589
253.5	0.593
254.0	0.600
254.5	0.608
255.0	0.615
255.5	0.623
256.0	0.632
256.5	0.636
257.0	0.644
257.5	0.648
258.0	0.653
258.5	0.656
259.0	0.661
259.5	0.665
260.0	0.668
260.5	0.670
261.0	0.674
261.5	0.674
262.0	0.674
262.5	0.676
263.0	0.676
263.5	0.678
264.0	0.684
264.5	0.688
265.0	0.693
265.5	0.697
266.0	0.700
266.5	0.704
267.0	0.705
267.5	0.708
268.0	0.710
268.5	0.715
269.0	0.719
269.5	0.722
270.0	0.724
270.5	0.726
271.0	0.728
271.5	0.729
272.0	0.731
272.5	0.732
273.0	0.733
273.5	0.733
274.0	0.734
274.5	0.734
275.0	0.733
275.5	0.734
276.0	0.732
276.5	0.730
277.0	0.727
277.5	0.724
278.0	0.719
278.5	0.713
279.0	0.710
279.5	0.703
280.0	0.695
280.5	0.688
281.0	0.680
281.5	0.672
282.0	0.662
282.5	0.652
283.0	0.639
283.5	0.625
284.0	0.612
284.5	0.600
285.0	0.587
285.5	0.573
286.0	0.559
286.5	0.542
287.0	0.525
287.5	0.507
288.0	0.488
288.5	0.470
289.0	0.450
289.5	0.431
290.0	0.410
290.5	0.389
291.0	0.366
291.5	0.342
292.0	0.319
292.5	0.299
293.0	0.280
293.5	0.261
294.0	0.239
294.5	0.221
295.0	0.204
295.5	0.188
296.0	0.176
296.5	0.163
297.0	0.153
297.5	0.143
298.0	0.134
298.5	0.125
299.0	0.116
299.5	0.109
300.0	0.100
300.5	0.093
301.0	0.086
301.5	0.080
302.0	0.074
302.5	0.066
303.0	0.060
303.5	0.053
304.0	0.047
304.5	0.041
305.0	0.036
305.5	0.033
306.0	0.029
306.5	0.027
307.0	0.023
307.5	0.022
308.0	0.018
308.5	0.016
309.0	0.015
309.5	0.013
310.0	0.012
310.5	0.011
311.0	0.011
311.5	0.011
312.0	0.011
312.5	0.011
313.0	0.011
313.5	0.013
314.0	0.012
314.5	0.012
315.0	0.010
315.5	0.012
316.0	0.013
316.5	0.013
317.0	0.011
317.5	0.010
318.0	0.011
318.5	0.010
319.0	0.009
319.5	0.008
320.0	0.007
320.5	0.008
321.0	0.007
321.5	0.007
322.0	0.005
322.5	0.006
323.0	0.005
323.5	0.003
324.0	0.001
324.5	-0.001
325.0	0.000
325.5	-0.001
326.0	-0.001
326.5	0.000
327.0	0.002
327.5	0.002
328.0	0.001
328.5	0.000
329.0	0.000
329.5	-0.001
330.0	0.000
330.5	0.000
331.0	0.002
331.5	0.004
332.0	0.005
332.5	0.005
333.0	0.005
333.5	0.007
334.0	0.005
334.5	0.003
335.0	0.003
335.5	0.004
336.0	0.005
336.5	0.004
337.0	0.007
337.5	0.006
338.0	0.004
338.5	0.003
339.0	0.001
339.5	0.000
340.0	0.000
340.5	0.001
341.0	-0.001
341.5	-0.002
342.0	0.000
342.5	0.001
343.0	0.001
343.5	-0.001
344.0	0.000
344.5	0.001
345.0	0.000
345.5	0.000
346.0	0.001
346.5	0.001
347.0	0.002
347.5	0.003
348.0	0.002
348.5	0.003
349.0	0.003
349.5	0.003
350.0	0.002



11/17/2020 10:31 PM
Wavelength (nm)	10mm Absorbance
//WLCalib: Shift 	0.05667	
//WLCalib: 261S 	-0.41000	
//WLCalib: 362S 	-0.47000	
//WLCalib: 484S 	0.00000	
//WLCalib: 529S 	0.07000	
//WLCalib: 823S 	-0.52000	
//QSpecEnd: 
220.0	12.672
220.5	12.859
221.0	12.833
221.5	12.782
222.0	12.651
222.5	12.463
223.0	12.143
223.5	11.817
224.0	11.430
224.5	10.987
225.0	10.544
225.5	10.189
226.0	9.886
226.5	9.645
227.0	9.409
227.5	9.190
228.0	8.973
228.5	8.771
229.0	8.562
229.5	8.337
230.0	8.091
230.5	7.830
231.0	7.556
231.5	7.265
232.0	6.941
232.5	6.581
233.0	6.196
233.5	5.813
234.0	5.428
234.5	5.041
235.0	4.665
235.5	4.303
236.0	3.959
236.5	3.646
237.0	3.351
237.5	3.063
238.0	2.786
238.5	2.530
239.0	2.303
239.5	2.120
240.0	1.977
240.5	1.864
241.0	1.773
241.5	1.698
242.0	1.636
242.5	1.577
243.0	1.524
243.5	1.482
244.0	1.446
244.5	1.420
245.0	1.400
245.5	1.384
246.0	1.368
246.5	1.356
247.0	1.348
247.5	1.342
248.0	1.339
248.5	1.338
249.0	1.340
249.5	1.342
250.0	1.345
250.5	1.350
251.0	1.355
251.5	1.361
252.0	1.368
252.5	1.379
253.0	1.390
253.5	1.403
254.0	1.420
254.5	1.433
255.0	1.450
255.5	1.467
256.0	1.485
256.5	1.504
257.0	1.522
257.5	1.537
258.0	1.551
258.5	1.563
259.0	1.572
259.5	1.581
260.0	1.587
260.5	1.593
261.0	1.601
261.5	1.606
262.0	1.611
262.5	1.616
263.0	1.619
263.5	1.627
264.0	1.636
264.5	1.647
265.0	1.659
265.5	1.668
266.0	1.677
266.5	1.686
267.0	1.694
267.5	1.700
268.0	1.708
268.5	1.715
269.0	1.721
269.5	1.726
270.0	1.731
270.5	1.736
271.0	1.738
271.5	1.741
272.0	1.744
272.5	1.747
273.0	1.750
273.5	1.751
274.0	1.751
274.5	1.751
275.0	1.750
275.5	1.750
276.0	1.747
276.5	1.743
277.0	1.738
277.5	1.730
278.0	1.722
278.5	1.712
279.0	1.702
279.5	1.689
280.0	1.673
280.5	1.656
281.0	1.636
281.5	1.615
282.0	1.590
282.5	1.562
283.0	1.530
283.5	1.497
284.0	1.465
284.5	1.434
285.0	1.402
285.5	1.368
286.0	1.334
286.5	1.295
287.0	1.252
287.5	1.208
288.0	1.164
288.5	1.122
289.0	1.077
289.5	1.033
290.0	0.987
290.5	0.937
291.0	0.887
291.5	0.833
292.0	0.779
292.5	0.731
293.0	0.684
293.5	0.637
294.0	0.588
294.5	0.543
295.0	0.501
295.5	0.464
296.0	0.431
296.5	0.400
297.0	0.374
297.5	0.350
298.0	0.328
298.5	0.306
299.0	0.284
299.5	0.266
300.0	0.247
300.5	0.230
301.0	0.213
301.5	0.196
302.0	0.180
302.5	0.164
303.0	0.149
303.5	0.133
304.0	0.122
304.5	0.111
305.0	0.101
305.5	0.094
306.0	0.086
306.5	0.079
307.0	0.071
307.5	0.066
308.0	0.060
308.5	0.054
309.0	0.052
309.5	0.048
310.0	0.045
310.5	0.043
311.0	0.042
311.5	0.041
312.0	0.040
312.5	0.038
313.0	0.036
313.5	0.035
314.0	0.033
314.5	0.033
315.0	0.032
315.5	0.033
316.0	0.035
316.5	0.035
317.0	0.034
317.5	0.032
318.0	0.031
318.5	0.030
319.0	0.029
319.5	0.024
320.0	0.023
320.5	0.023
321.0	0.025
321.5	0.024
322.0	0.021
322.5	0.020
323.0	0.019
323.5	0.017
324.0	0.014
324.5	0.011
325.0	0.012
325.5	0.012
326.0	0.012
326.5	0.014
327.0	0.015
327.5	0.015
328.0	0.015
328.5	0.012
329.0	0.009
329.5	0.009
330.0	0.009
330.5	0.008
331.0	0.009
331.5	0.010
332.0	0.011
332.5	0.012
333.0	0.009
333.5	0.008
334.0	0.005
334.5	0.005
335.0	0.005
335.5	0.003
336.0	0.003
336.5	0.005
337.0	0.006
337.5	0.006
338.0	0.006
338.5	0.004
339.0	0.003
339.5	0.001
340.0	0.000
340.5	0.001
341.0	0.001
341.5	0.001
342.0	0.002
342.5	0.002
343.0	0.003
343.5	0.004
344.0	0.003
344.5	0.003
345.0	0.001
345.5	0.001
346.0	0.002
346.5	0.001
347.0	0.001
347.5	0.002
348.0	0.001
348.5	0.001
349.0	0.000
349.5	0.000
350.0	-0.001



11/17/2020 10:31 PM
Wavelength (nm)	10mm Absorbance
//WLCalib: Shift 	0.05667	
//WLCalib: 261S 	-0.41000	
//WLCalib: 362S 	-0.47000	
//WLCalib: 484S 	0.00000	
//WLCalib: 529S 	0.07000	
//WLCalib: 823S 	-0.52000	
//QSpecEnd: 
220.0	13.873
220.5	13.982
221.0	13.946
221.5	13.883
222.0	13.871
222.5	13.749
223.0	13.531
223.5	13.245
224.0	12.829
224.5	12.379
225.0	11.862
225.5	11.468
226.0	11.148
226.5	10.879
227.0	10.616
227.5	10.358
228.0	10.115
228.5	9.885
229.0	9.651
229.5	9.389
230.0	9.104
230.5	8.800
231.0	8.481
231.5	8.146
232.0	7.772
232.5	7.366
233.0	6.927
233.5	6.488
234.0	6.053
234.5	5.623
235.0	5.206
235.5	4.803
236.0	4.421
236.5	4.073
237.0	3.745
237.5	3.425
238.0	3.117
238.5	2.832
239.0	2.581
239.5	2.380
240.0	2.223
240.5	2.098
241.0	1.998
241.5	1.918
242.0	1.848
242.5	1.784
243.0	1.723
243.5	1.674
244.0	1.635
244.5	1.605
245.0	1.583
245.5	1.564
246.0	1.547
246.5	1.534
247.0	1.522
247.5	1.514
248.0	1.511
248.5	1.509
249.0	1.509
249.5	1.511
250.0	1.515
250.5	1.521
251.0	1.526
251.5	1.532
252.0	1.540
252.5	1.549
253.0	1.562
253.5	1.575
254.0	1.592
254.5	1.610
255.0	1.629
255.5	1.648
256.0	1.669
256.5	1.689
257.0	1.710
257.5	1.727
258.0	1.745
258.5	1.759
259.0	1.770
259.5	1.780
260.0	1.788
260.5	1.795
261.0	1.804
261.5	1.810
262.0	1.815
262.5	1.820
263.0	1.825
263.5	1.835
264.0	1.848
264.5	1.860
265.0	1.873
265.5	1.883
266.0	1.893
266.5	1.903
267.0	1.911
267.5	1.918
268.0	1.924
268.5	1.931
269.0	1.938
269.5	1.946
270.0	1.950
270.5	1.955
271.0	1.957
271.5	1.961
272.0	1.964
272.5	1.966
273.0	1.967
273.5	1.968
274.0	1.968
274.5	1.969
275.0	1.967
275.5	1.967
276.0	1.964
276.5	1.959
277.0	1.951
277.5	1.945
278.0	1.935
278.5	1.924
279.0	1.911
279.5	1.896
280.0	1.878
280.5	1.861
281.0	1.839
281.5	1.817
282.0	1.788
282.5	1.757
283.0	1.722
283.5	1.687
284.0	1.651
284.5	1.616
285.0	1.579
285.5	1.541
286.0	1.500
286.5	1.458
287.0	1.410
287.5	1.361
288.0	1.311
288.5	1.263
289.0	1.214
289.5	1.164
290.0	1.111
290.5	1.055
291.0	0.996
291.5	0.935
292.0	0.875
292.5	0.820
293.0	0.767
293.5	0.713
294.0	0.658
294.5	0.607
295.0	0.560
295.5	0.518
296.0	0.481
296.5	0.446
297.0	0.416
297.5	0.391
298.0	0.366
298.5	0.341
299.0	0.317
299.5	0.296
300.0	0.276
300.5	0.257
301.0	0.239
301.5	0.220
302.0	0.204
302.5	0.185
303.0	0.168
303.5	0.151
304.0	0.139
304.5	0.127
305.0	0.115
305.5	0.106
306.0	0.097
306.5	0.091
307.0	0.083
307.5	0.076
308.0	0.068
308.5	0.061
309.0	0.057
309.5	0.052
310.0	0.049
310.5	0.047
311.0	0.045
311.5	0.045
312.0	0.042
312.5	0.041
313.0	0.039
313.5	0.038
314.0	0.035
314.5	0.034
315.0	0.033
315.5	0.035
316.0	0.037
316.5	0.037
317.0	0.035
317.5	0.032
318.0	0.031
318.5	0.030
319.0	0.029
319.5	0.027
320.0	0.026
320.5	0.025
321.0	0.024
321.5	0.022
322.0	0.020
322.5	0.018
323.0	0.016
323.5	0.014
324.0	0.013
324.5	0.010
325.0	0.010
325.5	0.011
326.0	0.009
326.5	0.010
327.0	0.010
327.5	0.010
328.0	0.009
328.5	0.007
329.0	0.006
329.5	0.006
330.0	0.007
330.5	0.007
331.0	0.007
331.5	0.008
332.0	0.009
332.5	0.012
333.0	0.010
333.5	0.009
334.0	0.007
334.5	0.006
335.0	0.007
335.5	0.006
336.0	0.006
336.5	0.007
337.0	0.009
337.5	0.008
338.0	0.006
338.5	0.005
339.0	0.003
339.5	0.001
340.0	0.000
340.5	0.000
341.0	0.000
341.5	0.000
342.0	0.000
342.5	0.001
343.0	0.002
343.5	0.002
344.0	0.002
344.5	0.002
345.0	0.001
345.5	0.000
346.0	0.001
346.5	0.000
347.0	0.001
347.5	0.001
348.0	0.001
348.5	0.000
349.0	0.000
349.5	0.001
350.0	-0.001



11/17/2020 10:32 PM
Wavelength (nm)	10mm Absorbance
//WLCalib: Shift 	0.05667	
//WLCalib: 261S 	-0.41000	
//WLCalib: 362S 	-0.47000	
//WLCalib: 484S 	0.00000	
//WLCalib: 529S 	0.07000	
//WLCalib: 823S 	-0.52000	
//QSpecEnd: 
220.0	9.668
220.5	9.563
221.0	9.399
221.5	9.237
222.0	9.041
222.5	8.817
223.0	8.611
223.5	8.349
224.0	8.057
224.5	7.701
225.0	7.365
225.5	7.094
226.0	6.878
226.5	6.704
227.0	6.539
227.5	6.382
228.0	6.233
228.5	6.091
229.0	5.954
229.5	5.804
230.0	5.644
230.5	5.470
231.0	5.287
231.5	5.092
232.0	4.879
232.5	4.638
233.0	4.376
233.5	4.107
234.0	3.836
234.5	3.566
235.0	3.298
235.5	3.035
236.0	2.789
236.5	2.564
237.0	2.352
237.5	2.146
238.0	1.949
238.5	1.767
239.0	1.608
239.5	1.478
240.0	1.378
240.5	1.297
241.0	1.233
241.5	1.180
242.0	1.135
242.5	1.092
243.0	1.055
243.5	1.025
244.0	1.000
244.5	0.982
245.0	0.970
245.5	0.960
246.0	0.950
246.5	0.942
247.0	0.935
247.5	0.931
248.0	0.929
248.5	0.928
249.0	0.929
249.5	0.930
250.0	0.934
250.5	0.937
251.0	0.941
251.5	0.946
252.0	0.950
252.5	0.954
253.0	0.961
253.5	0.971
254.0	0.982
254.5	0.991
255.0	1.001
255.5	1.014
256.0	1.029
256.5	1.042
257.0	1.055
257.5	1.064
258.0	1.074
258.5	1.082
259.0	1.090
259.5	1.096
260.0	1.102
260.5	1.107
261.0	1.111
261.5	1.116
262.0	1.119
262.5	1.123
263.0	1.125
263.5	1.128
264.0	1.133
264.5	1.140
265.0	1.149
265.5	1.155
266.0	1.161
266.5	1.166
267.0	1.171
267.5	1.175
268.0	1.181
268.5	1.185
269.0	1.189
269.5	1.194
270.0	1.197
270.5	1.201
271.0	1.203
271.5	1.206
272.0	1.208
272.5	1.209
273.0	1.211
273.5	1.211
274.0	1.211
274.5	1.210
275.0	1.210
275.5	1.207
276.0	1.204
276.5	1.199
277.0	1.195
277.5	1.190
278.0	1.182
278.5	1.175
279.0	1.169
279.5	1.159
280.0	1.147
280.5	1.136
281.0	1.121
281.5	1.108
282.0	1.092
282.5	1.074
283.0	1.055
283.5	1.033
284.0	1.011
284.5	0.989
285.0	0.967
285.5	0.944
286.0	0.919
286.5	0.894
287.0	0.866
287.5	0.836
288.0	0.807
288.5	0.779
289.0	0.748
289.5	0.718
290.0	0.686
290.5	0.650
291.0	0.615
291.5	0.577
292.0	0.542
292.5	0.508
293.0	0.475
293.5	0.442
294.0	0.409
294.5	0.377
295.0	0.348
295.5	0.323
296.0	0.298
296.5	0.277
297.0	0.258
297.5	0.243
298.0	0.228
298.5	0.212
299.0	0.197
299.5	0.184
300.0	0.172
300.5	0.159
301.0	0.148
301.5	0.136
302.0	0.125
302.5	0.112
303.0	0.101
303.5	0.091
304.0	0.082
304.5	0.075
305.0	0.066
305.5	0.060
306.0	0.054
306.5	0.052
307.0	0.046
307.5	0.042
308.0	0.038
308.5	0.034
309.0	0.031
309.5	0.029
310.0	0.027
310.5	0.027
311.0	0.027
311.5	0.027
312.0	0.026
312.5	0.025
313.0	0.023
313.5	0.022
314.0	0.019
314.5	0.019
315.0	0.018
315.5	0.019
316.0	0.020
316.5	0.021
317.0	0.018
317.5	0.017
318.0	0.016
318.5	0.014
319.0	0.014
319.5	0.013
320.0	0.013
320.5	0.013
321.0	0.013
321.5	0.014
322.0	0.013
322.5	0.013
323.0	0.013
323.5	0.012
324.0	0.011
324.5	0.009
325.0	0.010
325.5	0.009
326.0	0.007
326.5	0.006
327.0	0.006
327.5	0.005
328.0	0.005
328.5	0.004
329.0	0.002
329.5	0.002
330.0	0.002
330.5	0.002
331.0	0.003
331.5	0.003
332.0	0.004
332.5	0.005
333.0	0.003
333.5	0.005
334.0	0.004
334.5	0.003
335.0	0.004
335.5	0.003
336.0	0.003
336.5	0.005
337.0	0.006
337.5	0.005
338.0	0.003
338.5	0.002
339.0	0.001
339.5	0.000
340.0	0.000
340.5	0.001
341.0	0.000
341.5	0.001
342.0	0.000
342.5	-0.001
343.0	-0.001
343.5	-0.002
344.0	-0.003
344.5	-0.002
345.0	-0.004
345.5	-0.003
346.0	-0.003
346.5	-0.002
347.0	-0.002
347.5	-0.002
348.0	-0.001
348.5	0.000
349.0	-0.001
349.5	0.002
350.0	0.002



11/17/2020 10:32 PM
Wavelength (nm)	10mm Absorbance
//WLCalib: Shift 	0.05667	
//WLCalib: 261S 	-0.41000	
//WLCalib: 362S 	-0.47000	
//WLCalib: 484S 	0.00000	
//WLCalib: 529S 	0.07000	
//WLCalib: 823S 	-0.52000	
//QSpecEnd: 
220.0	4.505
220.5	4.422
221.0	4.346
221.5	4.239
222.0	4.116
222.5	4.001
223.0	3.880
223.5	3.736
224.0	3.577
224.5	3.410
225.0	3.253
225.5	3.128
226.0	3.024
226.5	2.940
227.0	2.864
227.5	2.793
228.0	2.726
228.5	2.664
229.0	2.603
229.5	2.542
230.0	2.476
230.5	2.407
231.0	2.333
231.5	2.255
232.0	2.167
232.5	2.068
233.0	1.957
233.5	1.844
234.0	1.728
234.5	1.609
235.0	1.492
235.5	1.376
236.0	1.266
236.5	1.167
237.0	1.074
237.5	0.981
238.0	0.893
238.5	0.812
239.0	0.741
239.5	0.683
240.0	0.637
240.5	0.600
241.0	0.570
241.5	0.547
242.0	0.528
242.5	0.511
243.0	0.497
243.5	0.486
244.0	0.473
244.5	0.465
245.0	0.461
245.5	0.457
246.0	0.455
246.5	0.451
247.0	0.448
247.5	0.447
248.0	0.446
248.5	0.445
249.0	0.445
249.5	0.446
250.0	0.447
250.5	0.447
251.0	0.447
251.5	0.450
252.0	0.452
252.5	0.454
253.0	0.456
253.5	0.457
254.0	0.462
254.5	0.465
255.0	0.469
255.5	0.476
256.0	0.482
256.5	0.486
257.0	0.490
257.5	0.491
258.0	0.496
258.5	0.499
259.0	0.502
259.5	0.507
260.0	0.508
260.5	0.508
261.0	0.510
261.5	0.511
262.0	0.512
262.5	0.514
263.0	0.513
263.5	0.514
264.0	0.517
264.5	0.521
265.0	0.525
265.5	0.526
266.0	0.528
266.5	0.530
267.0	0.529
267.5	0.530
268.0	0.533
268.5	0.535
269.0	0.537
269.5	0.540
270.0	0.539
270.5	0.539
271.0	0.540
271.5	0.540
272.0	0.541
272.5	0.542
273.0	0.543
273.5	0.543
274.0	0.543
274.5	0.543
275.0	0.542
275.5	0.541
276.0	0.540
276.5	0.537
277.0	0.532
277.5	0.530
278.0	0.527
278.5	0.523
279.0	0.521
279.5	0.515
280.0	0.509
280.5	0.503
281.0	0.497
281.5	0.490
282.0	0.482
282.5	0.474
283.0	0.464
283.5	0.453
284.0	0.443
284.5	0.435
285.0	0.426
285.5	0.417
286.0	0.407
286.5	0.395
287.0	0.382
287.5	0.367
288.0	0.353
288.5	0.340
289.0	0.326
289.5	0.312
290.0	0.297
290.5	0.281
291.0	0.267
291.5	0.251
292.0	0.235
292.5	0.220
293.0	0.206
293.5	0.192
294.0	0.177
294.5	0.164
295.0	0.152
295.5	0.141
296.0	0.130
296.5	0.120
297.0	0.113
297.5	0.107
298.0	0.101
298.5	0.094
299.0	0.088
299.5	0.083
300.0	0.078
300.5	0.073
301.0	0.068
301.5	0.063
302.0	0.058
302.5	0.052
303.0	0.047
303.5	0.042
304.0	0.039
304.5	0.035
305.0	0.031
305.5	0.028
306.0	0.026
306.5	0.025
307.0	0.021
307.5	0.018
308.0	0.014
308.5	0.010
309.0	0.010
309.5	0.010
310.0	0.010
310.5	0.010
311.0	0.010
311.5	0.009
312.0	0.009
312.5	0.009
313.0	0.007
313.5	0.006
314.0	0.004
314.5	0.003
315.0	0.003
315.5	0.004
316.0	0.006
316.5	0.006
317.0	0.005
317.5	0.003
318.0	0.002
318.5	0.002
319.0	0.002
319.5	0.000
320.0	-0.001
320.5	-0.001
321.0	-0.001
321.5	0.001
322.0	0.001
322.5	0.000
323.0	0.000
323.5	-0.002
324.0	-0.004
324.5	-0.007
325.0	-0.005
325.5	-0.005
326.0	-0.007
326.5	-0.006
327.0	-0.006
327.5	-0.007
328.0	-0.005
328.5	-0.005
329.0	-0.007
329.5	-0.007
330.0	-0.006
330.5	-0.006
331.0	-0.006
331.5	-0.005
332.0	-0.003
332.5	-0.003
333.0	-0.003
333.5	-0.001
334.0	-0.002
334.5	-0.002
335.0	0.001
335.5	0.000
336.0	0.000
336.5	0.001
337.0	0.003
337.5	0.002
338.0	0.001
338.5	0.001
339.0	0.001
339.5	0.000
340.0	0.000
340.5	0.001
341.0	-0.001
341.5	-0.001
342.0	-0.001
342.5	-0.002
343.0	-0.002
343.5	-0.002
344.0	-0.002
344.5	-0.002
345.0	-0.002
345.5	-0.001
346.0	0.000
346.5	0.000
347.0	0.001
347.5	0.002
348.0	0.002
348.5	0.002
349.0	0.002
349.5	0.003
350.0	0.002



11/17/2020 10:33 PM
Wavelength (nm)	10mm Absorbance
//WLCalib: Shift 	0.05667	
//WLCalib: 261S 	-0.41000	
//WLCalib: 362S 	-0.47000	
//WLCalib: 484S 	0.00000	
//WLCalib: 529S 	0.07000	
//WLCalib: 823S 	-0.52000	
//QSpecEnd: 
220.0	5.279
220.5	5.212
221.0	5.130
221.5	5.026
222.0	4.902
222.5	4.799
223.0	4.689
223.5	4.543
224.0	4.371
224.5	4.183
225.0	4.007
225.5	3.868
226.0	3.747
226.5	3.649
227.0	3.562
227.5	3.479
228.0	3.397
228.5	3.322
229.0	3.250
229.5	3.171
230.0	3.085
230.5	2.992
231.0	2.896
231.5	2.793
232.0	2.677
232.5	2.545
233.0	2.398
233.5	2.250
234.0	2.096
234.5	1.937
235.0	1.780
235.5	1.628
236.0	1.480
236.5	1.345
237.0	1.223
237.5	1.105
238.0	0.991
238.5	0.885
239.0	0.793
239.5	0.718
240.0	0.658
240.5	0.611
241.0	0.572
241.5	0.542
242.0	0.516
242.5	0.493
243.0	0.471
243.5	0.454
244.0	0.437
244.5	0.426
245.0	0.418
245.5	0.412
246.0	0.408
246.5	0.403
247.0	0.399
247.5	0.397
248.0	0.396
248.5	0.396
249.0	0.397
249.5	0.398
250.0	0.399
250.5	0.401
251.0	0.404
251.5	0.409
252.0	0.411
252.5	0.416
253.0	0.420
253.5	0.422
254.0	0.426
254.5	0.432
255.0	0.437
255.5	0.445
256.0	0.453
256.5	0.459
257.0	0.465
257.5	0.472
258.0	0.478
258.5	0.483
259.0	0.487
259.5	0.491
260.0	0.493
260.5	0.494
261.0	0.499
261.5	0.502
262.0	0.504
262.5	0.507
263.0	0.508
263.5	0.512
264.0	0.517
264.5	0.524
265.0	0.531
265.5	0.535
266.0	0.542
266.5	0.549
267.0	0.555
267.5	0.561
268.0	0.571
268.5	0.581
269.0	0.589
269.5	0.596
270.0	0.601
270.5	0.607
271.0	0.612
271.5	0.616
272.0	0.621
272.5	0.625
273.0	0.630
273.5	0.635
274.0	0.638
274.5	0.642
275.0	0.646
275.5	0.649
276.0	0.650
276.5	0.649
277.0	0.650
277.5	0.651
278.0	0.651
278.5	0.650
279.0	0.653
279.5	0.649
280.0	0.645
280.5	0.641
281.0	0.636
281.5	0.631
282.0	0.623
282.5	0.615
283.0	0.604
283.5	0.592
284.0	0.584
284.5	0.575
285.0	0.565
285.5	0.554
286.0	0.540
286.5	0.526
287.0	0.511
287.5	0.495
288.0	0.477
288.5	0.461
289.0	0.441
289.5	0.424
290.0	0.405
290.5	0.385
291.0	0.364
291.5	0.341
292.0	0.317
292.5	0.297
293.0	0.277
293.5	0.258
294.0	0.237
294.5	0.221
295.0	0.205
295.5	0.190
296.0	0.176
296.5	0.164
297.0	0.154
297.5	0.145
298.0	0.136
298.5	0.126
299.0	0.118
299.5	0.112
300.0	0.104
300.5	0.097
301.0	0.091
301.5	0.085
302.0	0.078
302.5	0.069
303.0	0.063
303.5	0.057
304.0	0.052
304.5	0.048
305.0	0.043
305.5	0.040
306.0	0.037
306.5	0.034
307.0	0.030
307.5	0.028
308.0	0.024
308.5	0.021
309.0	0.020
309.5	0.018
310.0	0.017
310.5	0.016
311.0	0.015
311.5	0.015
312.0	0.015
312.5	0.014
313.0	0.013
313.5	0.011
314.0	0.011
314.5	0.010
315.0	0.009
315.5	0.011
316.0	0.011
316.5	0.011
317.0	0.008
317.5	0.007
318.0	0.008
318.5	0.007
319.0	0.006
319.5	0.004
320.0	0.003
320.5	0.004
321.0	0.006
321.5	0.008
322.0	0.008
322.5	0.008
323.0	0.007
323.5	0.008
324.0	0.007
324.5	0.006
325.0	0.007
325.5	0.007
326.0	0.008
326.5	0.009
327.0	0.008
327.5	0.008
328.0	0.008
328.5	0.006
329.0	0.004
329.5	0.002
330.0	0.003
330.5	0.002
331.0	0.001
331.5	0.002
332.0	0.003
332.5	0.003
333.0	0.004
333.5	0.004
334.0	0.002
334.5	0.002
335.0	0.003
335.5	0.001
336.0	0.002
336.5	0.003
337.0	0.004
337.5	0.004
338.0	0.004
338.5	0.003
339.0	0.002
339.5	0.001
340.0	0.000
340.5	0.001
341.0	-0.001
341.5	0.000
342.0	0.000
342.5	0.001
343.0	0.002
343.5	0.002
344.0	0.002
344.5	0.002
345.0	0.002
345.5	0.003
346.0	0.003
346.5	0.004
347.0	0.005
347.5	0.004
348.0	0.004
348.5	0.005
349.0	0.004
349.5	0.005
350.0	0.006



11/17/2020 10:34 PM
Wavelength (nm)	10mm Absorbance
//WLCalib: Shift 	0.05667	
//WLCalib: 261S 	-0.41000	
//WLCalib: 362S 	-0.47000	
//WLCalib: 484S 	0.00000	
//WLCalib: 529S 	0.07000	
//WLCalib: 823S 	-0.52000	
//QSpecEnd: 
220.0	13.957
220.5	14.424
221.0	14.792
221.5	15.021
222.0	15.159
222.5	15.237
223.0	15.140
223.5	15.090
224.0	14.803
224.5	14.438
225.0	14.018
225.5	13.641
226.0	13.314
226.5	13.039
227.0	12.755
227.5	12.461
228.0	12.170
228.5	11.875
229.0	11.571
229.5	11.231
230.0	10.843
230.5	10.436
231.0	10.009
231.5	9.563
232.0	9.071
232.5	8.539
233.0	7.984
233.5	7.428
234.0	6.884
234.5	6.352
235.0	5.837
235.5	5.342
236.0	4.882
236.5	4.459
237.0	4.061
237.5	3.675
238.0	3.303
238.5	2.955
239.0	2.656
239.5	2.416
240.0	2.231
240.5	2.082
241.0	1.965
241.5	1.869
242.0	1.786
242.5	1.710
243.0	1.642
243.5	1.582
244.0	1.535
244.5	1.500
245.0	1.473
245.5	1.451
246.0	1.433
246.5	1.417
247.0	1.404
247.5	1.396
248.0	1.392
248.5	1.390
249.0	1.391
249.5	1.395
250.0	1.400
250.5	1.405
251.0	1.414
251.5	1.424
252.0	1.434
252.5	1.448
253.0	1.465
253.5	1.485
254.0	1.506
254.5	1.526
255.0	1.547
255.5	1.572
256.0	1.602
256.5	1.635
257.0	1.666
257.5	1.694
258.0	1.716
258.5	1.735
259.0	1.750
259.5	1.766
260.0	1.781
260.5	1.794
261.0	1.806
261.5	1.819
262.0	1.831
262.5	1.844
263.0	1.858
263.5	1.874
264.0	1.895
264.5	1.919
265.0	1.947
265.5	1.972
266.0	1.998
266.5	2.021
267.0	2.044
267.5	2.065
268.0	2.087
268.5	2.112
269.0	2.132
269.5	2.150
270.0	2.169
270.5	2.185
271.0	2.202
271.5	2.219
272.0	2.235
272.5	2.250
273.0	2.265
273.5	2.278
274.0	2.291
274.5	2.302
275.0	2.311
275.5	2.322
276.0	2.330
276.5	2.338
277.0	2.346
277.5	2.349
278.0	2.351
278.5	2.350
279.0	2.346
279.5	2.338
280.0	2.327
280.5	2.315
281.0	2.298
281.5	2.278
282.0	2.252
282.5	2.223
283.0	2.187
283.5	2.147
284.0	2.107
284.5	2.068
285.0	2.027
285.5	1.983
286.0	1.934
286.5	1.880
287.0	1.820
287.5	1.757
288.0	1.693
288.5	1.628
289.0	1.562
289.5	1.495
290.0	1.423
290.5	1.345
291.0	1.267
291.5	1.184
292.0	1.104
292.5	1.030
293.0	0.959
293.5	0.887
294.0	0.815
294.5	0.746
295.0	0.683
295.5	0.625
296.0	0.574
296.5	0.530
297.0	0.492
297.5	0.458
298.0	0.427
298.5	0.394
299.0	0.362
299.5	0.335
300.0	0.308
300.5	0.283
301.0	0.261
301.5	0.236
302.0	0.213
302.5	0.191
303.0	0.170
303.5	0.150
304.0	0.136
304.5	0.120
305.0	0.106
305.5	0.094
306.0	0.084
306.5	0.074
307.0	0.064
307.5	0.057
308.0	0.049
308.5	0.040
309.0	0.035
309.5	0.029
310.0	0.025
310.5	0.024
311.0	0.022
311.5	0.020
312.0	0.019
312.5	0.017
313.0	0.014
313.5	0.014
314.0	0.014
314.5	0.014
315.0	0.012
315.5	0.013
316.0	0.015
316.5	0.017
317.0	0.018
317.5	0.017
318.0	0.016
318.5	0.015
319.0	0.015
319.5	0.013
320.0	0.012
320.5	0.011
321.0	0.011
321.5	0.009
322.0	0.008
322.5	0.007
323.0	0.008
323.5	0.006
324.0	0.005
324.5	0.003
325.0	0.005
325.5	0.005
326.0	0.004
326.5	0.005
327.0	0.006
327.5	0.005
328.0	0.006
328.5	0.005
329.0	0.005
329.5	0.005
330.0	0.006
330.5	0.004
331.0	0.004
331.5	0.004
332.0	0.006
332.5	0.006
333.0	0.006
333.5	0.007
334.0	0.008
334.5	0.007
335.0	0.008
335.5	0.006
336.0	0.007
336.5	0.007
337.0	0.007
337.5	0.005
338.0	0.004
338.5	0.005
339.0	0.003
339.5	0.000
340.0	0.000
340.5	0.000
341.0	-0.001
341.5	-0.002
342.0	-0.003
342.5	-0.003
343.0	-0.002
343.5	-0.002
344.0	-0.001
344.5	-0.002
345.0	-0.002
345.5	0.000
346.0	0.000
346.5	0.000
347.0	0.002
347.5	0.002
348.0	0.002
348.5	0.003
349.0	0.003
349.5	0.005
350.0	0.005



11/17/2020 10:34 PM
Wavelength (nm)	10mm Absorbance
//WLCalib: Shift 	0.05667	
//WLCalib: 261S 	-0.41000	
//WLCalib: 362S 	-0.47000	
//WLCalib: 484S 	0.00000	
//WLCalib: 529S 	0.07000	
//WLCalib: 823S 	-0.52000	
//QSpecEnd: 
220.0	13.683
220.5	14.427
221.0	15.053
221.5	15.694
222.0	16.313
222.5	16.588
223.0	17.031
223.5	17.201
224.0	17.214
224.5	17.150
225.0	16.828
225.5	16.509
226.0	16.170
226.5	15.844
227.0	15.514
227.5	15.183
228.0	14.809
228.5	14.446
229.0	14.064
229.5	13.617
230.0	13.131
230.5	12.600
231.0	12.069
231.5	11.506
232.0	10.890
232.5	10.224
233.0	9.541
233.5	8.880
234.0	8.237
234.5	7.608
235.0	7.001
235.5	6.426
236.0	5.888
236.5	5.393
237.0	4.923
237.5	4.463
238.0	4.018
238.5	3.600
239.0	3.243
239.5	2.957
240.0	2.737
240.5	2.564
241.0	2.426
241.5	2.310
242.0	2.210
242.5	2.117
243.0	2.034
243.5	1.963
244.0	1.906
244.5	1.863
245.0	1.831
245.5	1.804
246.0	1.782
246.5	1.762
247.0	1.747
247.5	1.738
248.0	1.732
248.5	1.730
249.0	1.732
249.5	1.736
250.0	1.743
250.5	1.752
251.0	1.763
251.5	1.773
252.0	1.786
252.5	1.803
253.0	1.823
253.5	1.846
254.0	1.873
254.5	1.900
255.0	1.929
255.5	1.961
256.0	1.998
256.5	2.036
257.0	2.078
257.5	2.112
258.0	2.140
258.5	2.162
259.0	2.184
259.5	2.205
260.0	2.222
260.5	2.238
261.0	2.255
261.5	2.270
262.0	2.284
262.5	2.298
263.0	2.313
263.5	2.332
264.0	2.358
264.5	2.384
265.0	2.416
265.5	2.447
266.0	2.479
266.5	2.507
267.0	2.535
267.5	2.562
268.0	2.590
268.5	2.619
269.0	2.642
269.5	2.666
270.0	2.689
270.5	2.713
271.0	2.735
271.5	2.756
272.0	2.777
272.5	2.795
273.0	2.814
273.5	2.831
274.0	2.847
274.5	2.861
275.0	2.873
275.5	2.887
276.0	2.899
276.5	2.912
277.0	2.920
277.5	2.924
278.0	2.924
278.5	2.922
279.0	2.917
279.5	2.905
280.0	2.892
280.5	2.876
281.0	2.854
281.5	2.827
282.0	2.794
282.5	2.756
283.0	2.714
283.5	2.665
284.0	2.617
284.5	2.566
285.0	2.514
285.5	2.457
286.0	2.396
286.5	2.331
287.0	2.255
287.5	2.176
288.0	2.095
288.5	2.016
289.0	1.934
289.5	1.850
290.0	1.761
290.5	1.665
291.0	1.566
291.5	1.460
292.0	1.361
292.5	1.269
293.0	1.181
293.5	1.093
294.0	1.003
294.5	0.921
295.0	0.843
295.5	0.774
296.0	0.711
296.5	0.657
297.0	0.610
297.5	0.567
298.0	0.526
298.5	0.486
299.0	0.449
299.5	0.414
300.0	0.382
300.5	0.352
301.0	0.322
301.5	0.293
302.0	0.264
302.5	0.235
303.0	0.210
303.5	0.187
304.0	0.167
304.5	0.148
305.0	0.131
305.5	0.117
306.0	0.103
306.5	0.092
307.0	0.080
307.5	0.071
308.0	0.061
308.5	0.052
309.0	0.046
309.5	0.041
310.0	0.038
310.5	0.034
311.0	0.031
311.5	0.030
312.0	0.028
312.5	0.025
313.0	0.023
313.5	0.022
314.0	0.021
314.5	0.020
315.0	0.018
315.5	0.019
316.0	0.019
316.5	0.020
317.0	0.017
317.5	0.014
318.0	0.014
318.5	0.013
319.0	0.013
319.5	0.012
320.0	0.013
320.5	0.012
321.0	0.013
321.5	0.011
322.0	0.010
322.5	0.011
323.0	0.010
323.5	0.011
324.0	0.009
324.5	0.008
325.0	0.010
325.5	0.010
326.0	0.010
326.5	0.009
327.0	0.008
327.5	0.006
328.0	0.007
328.5	0.006
329.0	0.005
329.5	0.005
330.0	0.007
330.5	0.006
331.0	0.006
331.5	0.006
332.0	0.007
332.5	0.007
333.0	0.006
333.5	0.005
334.0	0.005
334.5	0.005
335.0	0.006
335.5	0.005
336.0	0.006
336.5	0.007
337.0	0.007
337.5	0.004
338.0	0.003
338.5	0.003
339.0	0.003
339.5	0.000
340.0	0.000
340.5	0.001
341.0	-0.001
341.5	-0.001
342.0	-0.002
342.5	-0.002
343.0	-0.002
343.5	-0.003
344.0	-0.003
344.5	-0.002
345.0	-0.003
345.5	-0.001
346.0	-0.001
346.5	-0.001
347.0	0.001
347.5	0.003
348.0	0.003
348.5	0.004
349.0	0.004
349.5	0.005
350.0	0.004



11/17/2020 10:35 PM
Wavelength (nm)	10mm Absorbance
//WLCalib: Shift 	0.05667	
//WLCalib: 261S 	-0.41000	
//WLCalib: 362S 	-0.47000	
//WLCalib: 484S 	0.00000	
//WLCalib: 529S 	0.07000	
//WLCalib: 823S 	-0.52000	
//QSpecEnd: 
220.0	12.632
220.5	12.675
221.0	12.704
221.5	12.612
222.0	12.452
222.5	12.248
223.0	12.082
223.5	11.776
224.0	11.420
224.5	11.023
225.0	10.608
225.5	10.262
226.0	9.984
226.5	9.743
227.0	9.507
227.5	9.277
228.0	9.059
228.5	8.845
229.0	8.628
229.5	8.392
230.0	8.132
230.5	7.844
231.0	7.552
231.5	7.239
232.0	6.890
232.5	6.506
233.0	6.096
233.5	5.685
234.0	5.273
234.5	4.868
235.0	4.474
235.5	4.092
236.0	3.733
236.5	3.402
237.0	3.093
237.5	2.795
238.0	2.509
238.5	2.241
239.0	2.010
239.5	1.825
240.0	1.678
240.5	1.562
241.0	1.470
241.5	1.396
242.0	1.333
242.5	1.273
243.0	1.219
243.5	1.175
244.0	1.140
244.5	1.115
245.0	1.095
245.5	1.079
246.0	1.066
246.5	1.055
247.0	1.045
247.5	1.039
248.0	1.036
248.5	1.035
249.0	1.037
249.5	1.041
250.0	1.046
250.5	1.051
251.0	1.058
251.5	1.065
252.0	1.072
252.5	1.083
253.0	1.095
253.5	1.109
254.0	1.126
254.5	1.142
255.0	1.160
255.5	1.180
256.0	1.204
256.5	1.225
257.0	1.247
257.5	1.265
258.0	1.282
258.5	1.297
259.0	1.308
259.5	1.321
260.0	1.330
260.5	1.338
261.0	1.348
261.5	1.356
262.0	1.364
262.5	1.373
263.0	1.380
263.5	1.391
264.0	1.404
264.5	1.421
265.0	1.440
265.5	1.458
266.0	1.475
266.5	1.494
267.0	1.509
267.5	1.525
268.0	1.543
268.5	1.559
269.0	1.574
269.5	1.589
270.0	1.602
270.5	1.617
271.0	1.630
271.5	1.643
272.0	1.655
272.5	1.667
273.0	1.678
273.5	1.689
274.0	1.697
274.5	1.706
275.0	1.714
275.5	1.722
276.0	1.730
276.5	1.736
277.0	1.740
277.5	1.742
278.0	1.742
278.5	1.740
279.0	1.738
279.5	1.731
280.0	1.722
280.5	1.711
281.0	1.697
281.5	1.683
282.0	1.664
282.5	1.640
283.0	1.613
283.5	1.584
284.0	1.555
284.5	1.527
285.0	1.496
285.5	1.463
286.0	1.428
286.5	1.388
287.0	1.345
287.5	1.298
288.0	1.251
288.5	1.205
289.0	1.156
289.5	1.108
290.0	1.054
290.5	0.996
291.0	0.936
291.5	0.876
292.0	0.815
292.5	0.762
293.0	0.710
293.5	0.657
294.0	0.603
294.5	0.554
295.0	0.507
295.5	0.465
296.0	0.427
296.5	0.393
297.0	0.365
297.5	0.340
298.0	0.316
298.5	0.293
299.0	0.270
299.5	0.251
300.0	0.231
300.5	0.212
301.0	0.195
301.5	0.177
302.0	0.159
302.5	0.142
303.0	0.126
303.5	0.112
304.0	0.100
304.5	0.089
305.0	0.077
305.5	0.070
306.0	0.061
306.5	0.054
307.0	0.045
307.5	0.040
308.0	0.033
308.5	0.027
309.0	0.024
309.5	0.021
310.0	0.019
310.5	0.017
311.0	0.015
311.5	0.015
312.0	0.012
312.5	0.011
313.0	0.009
313.5	0.008
314.0	0.007
314.5	0.007
315.0	0.006
315.5	0.008
316.0	0.010
316.5	0.010
317.0	0.008
317.5	0.006
318.0	0.005
318.5	0.003
319.0	0.004
319.5	0.005
320.0	0.005
320.5	0.005
321.0	0.007
321.5	0.006
322.0	0.006
322.5	0.005
323.0	0.006
323.5	0.004
324.0	0.004
324.5	0.002
325.0	0.004
325.5	0.004
326.0	0.004
326.5	0.004
327.0	0.003
327.5	0.002
328.0	0.003
328.5	0.001
329.0	0.001
329.5	0.000
330.0	0.003
330.5	0.001
331.0	0.000
331.5	0.000
332.0	0.000
332.5	0.001
333.0	0.001
333.5	0.002
334.0	0.001
334.5	0.002
335.0	0.003
335.5	0.003
336.0	0.003
336.5	0.005
337.0	0.005
337.5	0.003
338.0	0.002
338.5	0.003
339.0	0.002
339.5	0.000
340.0	0.000
340.5	0.001
341.0	-0.001
341.5	-0.002
342.0	-0.002
342.5	-0.001
343.0	-0.003
343.5	-0.003
344.0	-0.004
344.5	-0.004
345.0	-0.003
345.5	-0.002
346.0	-0.001
346.5	-0.002
347.0	0.000
347.5	0.002
348.0	0.001
348.5	0.001
349.0	0.002
349.5	0.005
350.0	0.003



11/17/2020 10:36 PM
Wavelength (nm)	10mm Absorbance
//WLCalib: Shift 	0.05667	
//WLCalib: 261S 	-0.41000	
//WLCalib: 362S 	-0.47000	
//WLCalib: 484S 	0.00000	
//WLCalib: 529S 	0.07000	
//WLCalib: 823S 	-0.52000	
//QSpecEnd: 
220.0	5.793
220.5	5.695
221.0	5.583
221.5	5.465
222.0	5.337
222.5	5.208
223.0	5.068
223.5	4.926
224.0	4.753
224.5	4.557
225.0	4.362
225.5	4.209
226.0	4.084
226.5	3.980
227.0	3.884
227.5	3.793
228.0	3.704
228.5	3.623
229.0	3.542
229.5	3.456
230.0	3.362
230.5	3.262
231.0	3.154
231.5	3.040
232.0	2.912
232.5	2.769
233.0	2.608
233.5	2.443
234.0	2.275
234.5	2.105
235.0	1.935
235.5	1.771
236.0	1.611
236.5	1.468
237.0	1.334
237.5	1.206
238.0	1.084
238.5	0.972
239.0	0.873
239.5	0.794
240.0	0.732
240.5	0.684
241.0	0.643
241.5	0.611
242.0	0.586
242.5	0.561
243.0	0.539
243.5	0.521
244.0	0.506
244.5	0.496
245.0	0.488
245.5	0.481
246.0	0.475
246.5	0.472
247.0	0.468
247.5	0.467
248.0	0.465
248.5	0.465
249.0	0.465
249.5	0.465
250.0	0.467
250.5	0.468
251.0	0.472
251.5	0.475
252.0	0.477
252.5	0.483
253.0	0.489
253.5	0.494
254.0	0.499
254.5	0.505
255.0	0.510
255.5	0.518
256.0	0.529
256.5	0.538
257.0	0.548
257.5	0.555
258.0	0.561
258.5	0.565
259.0	0.569
259.5	0.574
260.0	0.578
260.5	0.581
261.0	0.586
261.5	0.590
262.0	0.592
262.5	0.594
263.0	0.594
263.5	0.596
264.0	0.603
264.5	0.608
265.0	0.616
265.5	0.622
266.0	0.628
266.5	0.637
267.0	0.643
267.5	0.647
268.0	0.653
268.5	0.662
269.0	0.669
269.5	0.676
270.0	0.681
270.5	0.687
271.0	0.692
271.5	0.697
272.0	0.702
272.5	0.706
273.0	0.712
273.5	0.716
274.0	0.720
274.5	0.722
275.0	0.726
275.5	0.730
276.0	0.731
276.5	0.732
277.0	0.732
277.5	0.734
278.0	0.735
278.5	0.734
279.0	0.733
279.5	0.728
280.0	0.723
280.5	0.714
281.0	0.709
281.5	0.703
282.0	0.695
282.5	0.684
283.0	0.671
283.5	0.658
284.0	0.645
284.5	0.633
285.0	0.620
285.5	0.606
286.0	0.591
286.5	0.575
287.0	0.559
287.5	0.541
288.0	0.522
288.5	0.504
289.0	0.483
289.5	0.462
290.0	0.440
290.5	0.416
291.0	0.391
291.5	0.367
292.0	0.341
292.5	0.319
293.0	0.297
293.5	0.277
294.0	0.253
294.5	0.232
295.0	0.212
295.5	0.196
296.0	0.180
296.5	0.166
297.0	0.155
297.5	0.145
298.0	0.136
298.5	0.128
299.0	0.118
299.5	0.110
300.0	0.103
300.5	0.096
301.0	0.089
301.5	0.081
302.0	0.075
302.5	0.067
303.0	0.059
303.5	0.052
304.0	0.048
304.5	0.042
305.0	0.036
305.5	0.033
306.0	0.027
306.5	0.024
307.0	0.021
307.5	0.017
308.0	0.013
308.5	0.009
309.0	0.008
309.5	0.007
310.0	0.007
310.5	0.007
311.0	0.007
311.5	0.008
312.0	0.008
312.5	0.007
313.0	0.006
313.5	0.006
314.0	0.007
314.5	0.006
315.0	0.005
315.5	0.006
316.0	0.008
316.5	0.008
317.0	0.007
317.5	0.005
318.0	0.004
318.5	0.003
319.0	0.002
319.5	0.000
320.0	0.000
320.5	0.000
321.0	0.002
321.5	0.003
322.0	0.002
322.5	0.004
323.0	0.006
323.5	0.005
324.0	0.004
324.5	0.002
325.0	0.004
325.5	0.004
326.0	0.004
326.5	0.005
327.0	0.005
327.5	0.004
328.0	0.005
328.5	0.002
329.0	0.000
329.5	0.000
330.0	0.001
330.5	-0.001
331.0	-0.001
331.5	0.001
332.0	0.002
332.5	0.002
333.0	0.002
333.5	0.003
334.0	0.003
334.5	0.003
335.0	0.005
335.5	0.004
336.0	0.005
336.5	0.006
337.0	0.007
337.5	0.005
338.0	0.005
338.5	0.005
339.0	0.003
339.5	0.001
340.0	0.000
340.5	0.000
341.0	-0.001
341.5	-0.002
342.0	0.000
342.5	0.000
343.0	0.001
343.5	0.001
344.0	0.000
344.5	0.001
345.0	0.000
345.5	0.000
346.0	0.001
346.5	0.001
347.0	0.002
347.5	0.004
348.0	0.005
348.5	0.006
349.0	0.007
349.5	0.007
350.0	0.006



11/17/2020 10:36 PM
Wavelength (nm)	10mm Absorbance
//WLCalib: Shift 	0.05667	
//WLCalib: 261S 	-0.41000	
//WLCalib: 362S 	-0.47000	
//WLCalib: 484S 	0.00000	
//WLCalib: 529S 	0.07000	
//WLCalib: 823S 	-0.52000	
//QSpecEnd: 
220.0	2.968
220.5	2.921
221.0	2.848
221.5	2.784
222.0	2.716
222.5	2.653
223.0	2.579
223.5	2.490
224.0	2.399
224.5	2.297
225.0	2.195
225.5	2.118
226.0	2.051
226.5	1.998
227.0	1.953
227.5	1.908
228.0	1.864
228.5	1.825
229.0	1.786
229.5	1.748
230.0	1.704
230.5	1.658
231.0	1.609
231.5	1.557
232.0	1.497
232.5	1.432
233.0	1.357
233.5	1.283
234.0	1.205
234.5	1.121
235.0	1.041
235.5	0.964
236.0	0.888
236.5	0.819
237.0	0.754
237.5	0.693
238.0	0.633
238.5	0.580
239.0	0.533
239.5	0.496
240.0	0.467
240.5	0.444
241.0	0.425
241.5	0.409
242.0	0.398
242.5	0.385
243.0	0.376
243.5	0.370
244.0	0.362
244.5	0.358
245.0	0.356
245.5	0.356
246.0	0.356
246.5	0.356
247.0	0.355
247.5	0.354
248.0	0.354
248.5	0.354
249.0	0.356
249.5	0.357
250.0	0.359
250.5	0.360
251.0	0.362
251.5	0.365
252.0	0.366
252.5	0.369
253.0	0.370
253.5	0.370
254.0	0.373
254.5	0.376
255.0	0.378
255.5	0.382
256.0	0.385
256.5	0.385
257.0	0.386
257.5	0.386
258.0	0.388
258.5	0.390
259.0	0.391
259.5	0.393
260.0	0.393
260.5	0.392
261.0	0.394
261.5	0.392
262.0	0.392
262.5	0.392
263.0	0.390
263.5	0.392
264.0	0.394
264.5	0.396
265.0	0.399
265.5	0.399
266.0	0.399
266.5	0.402
267.0	0.404
267.5	0.405
268.0	0.409
268.5	0.412
269.0	0.414
269.5	0.417
270.0	0.419
270.5	0.421
271.0	0.423
271.5	0.425
272.0	0.426
272.5	0.429
273.0	0.431
273.5	0.433
274.0	0.433
274.5	0.433
275.0	0.435
275.5	0.436
276.0	0.436
276.5	0.436
277.0	0.435
277.5	0.433
278.0	0.432
278.5	0.430
279.0	0.427
279.5	0.425
280.0	0.420
280.5	0.415
281.0	0.410
281.5	0.406
282.0	0.400
282.5	0.393
283.0	0.385
283.5	0.377
284.0	0.368
284.5	0.361
285.0	0.354
285.5	0.347
286.0	0.337
286.5	0.328
287.0	0.318
287.5	0.308
288.0	0.296
288.5	0.284
289.0	0.272
289.5	0.259
290.0	0.247
290.5	0.233
291.0	0.219
291.5	0.205
292.0	0.189
292.5	0.177
293.0	0.165
293.5	0.154
294.0	0.141
294.5	0.129
295.0	0.116
295.5	0.108
296.0	0.100
296.5	0.093
297.0	0.088
297.5	0.083
298.0	0.077
298.5	0.071
299.0	0.065
299.5	0.063
300.0	0.057
300.5	0.053
301.0	0.049
301.5	0.045
302.0	0.042
302.5	0.038
303.0	0.034
303.5	0.028
304.0	0.026
304.5	0.022
305.0	0.018
305.5	0.017
306.0	0.015
306.5	0.015
307.0	0.012
307.5	0.012
308.0	0.009
308.5	0.006
309.0	0.006
309.5	0.006
310.0	0.007
310.5	0.007
311.0	0.009
311.5	0.008
312.0	0.008
312.5	0.009
313.0	0.008
313.5	0.008
314.0	0.007
314.5	0.007
315.0	0.005
315.5	0.007
316.0	0.009
316.5	0.010
317.0	0.008
317.5	0.004
318.0	0.003
318.5	0.002
319.0	0.003
319.5	0.002
320.0	0.002
320.5	0.002
321.0	0.002
321.5	0.002
322.0	0.000
322.5	0.001
323.0	0.001
323.5	0.000
324.0	-0.003
324.5	-0.004
325.0	-0.002
325.5	0.000
326.0	0.001
326.5	0.001
327.0	0.001
327.5	0.000
328.0	0.001
328.5	0.000
329.0	-0.001
329.5	-0.001
330.0	0.000
330.5	-0.002
331.0	-0.002
331.5	0.000
332.0	0.000
332.5	0.001
333.0	0.000
333.5	0.000
334.0	-0.001
334.5	-0.002
335.0	-0.001
335.5	-0.002
336.0	0.000
336.5	0.001
337.0	0.003
337.5	0.002
338.0	0.002
338.5	0.002
339.0	0.001
339.5	0.000
340.0	0.000
340.5	-0.001
341.0	-0.002
341.5	-0.002
342.0	-0.002
342.5	-0.001
343.0	-0.001
343.5	-0.001
344.0	-0.003
344.5	-0.002
345.0	-0.002
345.5	-0.001
346.0	-0.001
346.5	0.000
347.0	0.000
347.5	0.001
348.0	0.003
348.5	0.004
349.0	0.004
349.5	0.005
350.0	0.004



11/17/2020 10:37 PM
Wavelength (nm)	10mm Absorbance
//WLCalib: Shift 	0.05667	
//WLCalib: 261S 	-0.41000	
//WLCalib: 362S 	-0.47000	
//WLCalib: 484S 	0.00000	
//WLCalib: 529S 	0.07000	
//WLCalib: 823S 	-0.52000	
//QSpecEnd: 
220.0	1.881
220.5	1.839
221.0	1.792
221.5	1.747
222.0	1.703
222.5	1.655
223.0	1.606
223.5	1.558
224.0	1.505
224.5	1.445
225.0	1.381
225.5	1.331
226.0	1.294
226.5	1.261
227.0	1.236
227.5	1.211
228.0	1.186
228.5	1.166
229.0	1.144
229.5	1.122
230.0	1.099
230.5	1.072
231.0	1.044
231.5	1.015
232.0	0.984
232.5	0.950
233.0	0.912
233.5	0.871
234.0	0.828
234.5	0.782
235.0	0.738
235.5	0.697
236.0	0.655
236.5	0.619
237.0	0.586
237.5	0.555
238.0	0.532
238.5	0.510
239.0	0.489
239.5	0.472
240.0	0.460
240.5	0.450
241.0	0.442
241.5	0.439
242.0	0.435
242.5	0.431
243.0	0.433
243.5	0.433
244.0	0.435
244.5	0.438
245.0	0.440
245.5	0.442
246.0	0.445
246.5	0.447
247.0	0.448
247.5	0.451
248.0	0.453
248.5	0.455
249.0	0.458
249.5	0.461
250.0	0.463
250.5	0.463
251.0	0.466
251.5	0.467
252.0	0.467
252.5	0.470
253.0	0.471
253.5	0.470
254.0	0.471
254.5	0.473
255.0	0.472
255.5	0.473
256.0	0.474
256.5	0.469
257.0	0.465
257.5	0.463
258.0	0.462
258.5	0.459
259.0	0.459
259.5	0.459
260.0	0.457
260.5	0.454
261.0	0.452
261.5	0.450
262.0	0.446
262.5	0.444
263.0	0.440
263.5	0.436
264.0	0.434
264.5	0.433
265.0	0.431
265.5	0.427
266.0	0.425
266.5	0.423
267.0	0.422
267.5	0.421
268.0	0.422
268.5	0.424
269.0	0.423
269.5	0.425
270.0	0.424
270.5	0.426
271.0	0.427
271.5	0.427
272.0	0.427
272.5	0.427
273.0	0.429
273.5	0.429
274.0	0.430
274.5	0.430
275.0	0.429
275.5	0.427
276.0	0.426
276.5	0.423
277.0	0.421
277.5	0.418
278.0	0.416
278.5	0.410
279.0	0.410
279.5	0.403
280.0	0.397
280.5	0.392
281.0	0.385
281.5	0.380
282.0	0.372
282.5	0.365
283.0	0.357
283.5	0.349
284.0	0.342
284.5	0.333
285.0	0.326
285.5	0.316
286.0	0.306
286.5	0.295
287.0	0.286
287.5	0.274
288.0	0.262
288.5	0.252
289.0	0.240
289.5	0.228
290.0	0.217
290.5	0.204
291.0	0.190
291.5	0.177
292.0	0.165
292.5	0.153
293.0	0.142
293.5	0.132
294.0	0.121
294.5	0.111
295.0	0.104
295.5	0.097
296.0	0.090
296.5	0.083
297.0	0.078
297.5	0.072
298.0	0.067
298.5	0.063
299.0	0.059
299.5	0.056
300.0	0.053
300.5	0.050
301.0	0.048
301.5	0.044
302.0	0.042
302.5	0.037
303.0	0.033
303.5	0.028
304.0	0.026
304.5	0.024
305.0	0.021
305.5	0.021
306.0	0.020
306.5	0.019
307.0	0.016
307.5	0.014
308.0	0.012
308.5	0.010
309.0	0.009
309.5	0.009
310.0	0.008
310.5	0.010
311.0	0.011
311.5	0.011
312.0	0.010
312.5	0.012
313.0	0.010
313.5	0.009
314.0	0.008
314.5	0.010
315.0	0.010
315.5	0.012
316.0	0.013
316.5	0.014
317.0	0.012
317.5	0.011
318.0	0.010
318.5	0.008
319.0	0.008
319.5	0.007
320.0	0.007
320.5	0.006
321.0	0.008
321.5	0.009
322.0	0.008
322.5	0.007
323.0	0.007
323.5	0.007
324.0	0.005
324.5	0.004
325.0	0.006
325.5	0.006
326.0	0.007
326.5	0.007
327.0	0.005
327.5	0.005
328.0	0.006
328.5	0.004
329.0	0.003
329.5	0.002
330.0	0.002
330.5	0.001
331.0	0.000
331.5	0.001
332.0	0.001
332.5	0.002
333.0	0.002
333.5	0.002
334.0	0.002
334.5	0.002
335.0	0.004
335.5	0.002
336.0	0.003
336.5	0.004
337.0	0.005
337.5	0.004
338.0	0.003
338.5	0.003
339.0	0.002
339.5	0.001
340.0	0.000
340.5	0.000
341.0	0.000
341.5	0.001
342.0	0.001
342.5	0.001
343.0	0.001
343.5	0.002
344.0	0.002
344.5	0.002
345.0	0.002
345.5	0.003
346.0	0.004
346.5	0.004
347.0	0.004
347.5	0.005
348.0	0.005
348.5	0.005
349.0	0.004
349.5	0.005
350.0	0.003



11/17/2020 10:37 PM
Wavelength (nm)	10mm Absorbance
//WLCalib: Shift 	0.05667	
//WLCalib: 261S 	-0.41000	
//WLCalib: 362S 	-0.47000	
//WLCalib: 484S 	0.00000	
//WLCalib: 529S 	0.07000	
//WLCalib: 823S 	-0.52000	
//QSpecEnd: 
220.0	1.389
220.5	1.360
221.0	1.326
221.5	1.294
222.0	1.251
222.5	1.223
223.0	1.199
223.5	1.161
224.0	1.120
224.5	1.078
225.0	1.038
225.5	1.009
226.0	0.983
226.5	0.964
227.0	0.948
227.5	0.931
228.0	0.913
228.5	0.899
229.0	0.886
229.5	0.875
230.0	0.861
230.5	0.846
231.0	0.832
231.5	0.815
232.0	0.800
232.5	0.783
233.0	0.762
233.5	0.741
234.0	0.719
234.5	0.697
235.0	0.680
235.5	0.667
236.0	0.652
236.5	0.640
237.0	0.627
237.5	0.617
238.0	0.613
238.5	0.609
239.0	0.608
239.5	0.608
240.0	0.608
240.5	0.611
241.0	0.614
241.5	0.620
242.0	0.625
242.5	0.630
243.0	0.637
243.5	0.647
244.0	0.657
244.5	0.667
245.0	0.676
245.5	0.683
246.0	0.690
246.5	0.696
247.0	0.701
247.5	0.707
248.0	0.712
248.5	0.717
249.0	0.722
249.5	0.725
250.0	0.729
250.5	0.732
251.0	0.736
251.5	0.736
252.0	0.737
252.5	0.738
253.0	0.740
253.5	0.741
254.0	0.742
254.5	0.742
255.0	0.741
255.5	0.740
256.0	0.733
256.5	0.721
257.0	0.713
257.5	0.704
258.0	0.696
258.5	0.689
259.0	0.685
259.5	0.680
260.0	0.673
260.5	0.668
261.0	0.662
261.5	0.657
262.0	0.650
262.5	0.645
263.0	0.637
263.5	0.631
264.0	0.626
264.5	0.617
265.0	0.610
265.5	0.603
266.0	0.598
266.5	0.595
267.0	0.592
267.5	0.590
268.0	0.591
268.5	0.590
269.0	0.588
269.5	0.588
270.0	0.586
270.5	0.584
271.0	0.582
271.5	0.580
272.0	0.579
272.5	0.579
273.0	0.579
273.5	0.577
274.0	0.576
274.5	0.574
275.0	0.571
275.5	0.566
276.0	0.562
276.5	0.558
277.0	0.554
277.5	0.549
278.0	0.544
278.5	0.539
279.0	0.535
279.5	0.528
280.0	0.519
280.5	0.511
281.0	0.502
281.5	0.493
282.0	0.483
282.5	0.472
283.0	0.461
283.5	0.448
284.0	0.436
284.5	0.426
285.0	0.414
285.5	0.401
286.0	0.385
286.5	0.371
287.0	0.357
287.5	0.341
288.0	0.324
288.5	0.308
289.0	0.290
289.5	0.275
290.0	0.260
290.5	0.241
291.0	0.225
291.5	0.206
292.0	0.190
292.5	0.177
293.0	0.165
293.5	0.154
294.0	0.140
294.5	0.128
295.0	0.118
295.5	0.111
296.0	0.103
296.5	0.096
297.0	0.091
297.5	0.086
298.0	0.081
298.5	0.076
299.0	0.071
299.5	0.067
300.0	0.062
300.5	0.056
301.0	0.051
301.5	0.048
302.0	0.043
302.5	0.038
303.0	0.033
303.5	0.028
304.0	0.026
304.5	0.022
305.0	0.019
305.5	0.018
306.0	0.015
306.5	0.015
307.0	0.012
307.5	0.011
308.0	0.010
308.5	0.008
309.0	0.009
309.5	0.008
310.0	0.008
310.5	0.008
311.0	0.008
311.5	0.008
312.0	0.008
312.5	0.008
313.0	0.007
313.5	0.006
314.0	0.006
314.5	0.007
315.0	0.006
315.5	0.007
316.0	0.008
316.5	0.010
317.0	0.010
317.5	0.009
318.0	0.008
318.5	0.008
319.0	0.009
319.5	0.008
320.0	0.008
320.5	0.008
321.0	0.010
321.5	0.011
322.0	0.010
322.5	0.010
323.0	0.012
323.5	0.010
324.0	0.007
324.5	0.005
325.0	0.004
325.5	0.005
326.0	0.006
326.5	0.008
327.0	0.007
327.5	0.005
328.0	0.005
328.5	0.003
329.0	0.002
329.5	0.002
330.0	0.003
330.5	0.001
331.0	0.002
331.5	0.003
332.0	0.003
332.5	0.005
333.0	0.005
333.5	0.004
334.0	0.003
334.5	0.002
335.0	0.005
335.5	0.004
336.0	0.006
336.5	0.006
337.0	0.006
337.5	0.005
338.0	0.004
338.5	0.004
339.0	0.003
339.5	0.001
340.0	0.000
340.5	0.000
341.0	-0.001
341.5	-0.001
342.0	0.000
342.5	-0.001
343.0	-0.001
343.5	-0.002
344.0	-0.001
344.5	0.000
345.0	-0.001
345.5	0.000
346.0	0.001
346.5	0.001
347.0	0.002
347.5	0.004
348.0	0.006
348.5	0.007
349.0	0.006
349.5	0.007
350.0	0.006

