TITLE	F159W GTP
DATA TYPE	
ORIGIN	JASCO
OWNER	
DATE	21/01/20
TIME	20:48:16
SPECTROMETER/DATA SYSTEM	JASCO Corp., J-715, Rev. 1.00
RESOLUTION	
DELTAX	-0.2
XUNITS	NANOMETERS
YUNITS	CD[mdeg]
Y2UNITS	HT[V]
FIRSTX	280.0000
LASTX	195.0000
NPOINTS	426
FIRSTY	-0.46379
MAXY	4.29781
MINY	-6.28524
XYDATA
280.0000	-0.463789	246.523
279.8000	-0.463329	246.527
279.6000	-0.469864	246.535
279.4000	-0.471221	246.546
279.2000	-0.47326	246.561
279.0000	-0.473111	246.579
278.8000	-0.475967	246.601
278.6000	-0.464872	246.627
278.4000	-0.460168	246.655
278.2000	-0.461909	246.686
278.0000	-0.467878	246.721
277.8000	-0.472614	246.759
277.6000	-0.469337	246.8
277.4000	-0.466349	246.846
277.2000	-0.467776	246.895
277.0000	-0.468821	246.946
276.8000	-0.467286	247.002
276.6000	-0.46627	247.06
276.4000	-0.456791	247.123
276.2000	-0.449544	247.189
276.0000	-0.443177	247.259
275.8000	-0.440475	247.332
275.6000	-0.441094	247.407
275.4000	-0.442138	247.487
275.2000	-0.443448	247.57
275.0000	-0.439461	247.658
274.8000	-0.444166	247.749
274.6000	-0.446534	247.845
274.4000	-0.442804	247.946
274.2000	-0.446037	248.052
274.0000	-0.450685	248.161
273.8000	-0.451392	248.276
273.6000	-0.448879	248.392
273.4000	-0.434775	248.512
273.2000	-0.431274	248.637
273.0000	-0.42847	248.761
272.8000	-0.41957	248.888
272.6000	-0.41627	249.014
272.4000	-0.410735	249.14
272.2000	-0.40812	249.266
272.0000	-0.408103	249.393
271.8000	-0.412879	249.517
271.6000	-0.419083	249.644
271.4000	-0.413861	249.769
271.2000	-0.415988	249.893
271.0000	-0.414252	250.019
270.8000	-0.427823	250.142
270.6000	-0.433944	250.266
270.4000	-0.433434	250.39
270.2000	-0.427942	250.515
270.0000	-0.423492	250.638
269.8000	-0.428449	250.762
269.6000	-0.43239	250.885
269.4000	-0.438544	251.007
269.2000	-0.440077	251.13
269.0000	-0.443778	251.251
268.8000	-0.440847	251.373
268.6000	-0.443044	251.494
268.4000	-0.445835	251.615
268.2000	-0.45364	251.734
268.0000	-0.453001	251.852
267.8000	-0.454633	251.968
267.6000	-0.46081	252.085
267.4000	-0.460945	252.2
267.2000	-0.459979	252.315
267.0000	-0.458691	252.428
266.8000	-0.463525	252.539
266.6000	-0.471082	252.649
266.4000	-0.465606	252.758
266.2000	-0.470134	252.867
266.0000	-0.478939	252.974
265.8000	-0.478253	253.081
265.6000	-0.471281	253.187
265.4000	-0.465947	253.291
265.2000	-0.46517	253.396
265.0000	-0.466679	253.501
264.8000	-0.466925	253.605
264.6000	-0.46964	253.71
264.4000	-0.461788	253.815
264.2000	-0.457373	253.923
264.0000	-0.452881	254.03
263.8000	-0.452688	254.138
263.6000	-0.457531	254.247
263.4000	-0.464668	254.356
263.2000	-0.466131	254.465
263.0000	-0.469587	254.574
262.8000	-0.469641	254.683
262.6000	-0.471776	254.795
262.4000	-0.475771	254.906
262.2000	-0.479567	255.019
262.0000	-0.477554	255.131
261.8000	-0.476786	255.243
261.6000	-0.475072	255.358
261.4000	-0.465762	255.471
261.2000	-0.466354	255.587
261.0000	-0.464231	255.701
260.8000	-0.462627	255.816
260.6000	-0.459408	255.93
260.4000	-0.461093	256.044
260.2000	-0.4579	256.159
260.0000	-0.453869	256.275
259.8000	-0.451574	256.392
259.6000	-0.460162	256.509
259.4000	-0.460215	256.626
259.2000	-0.454201	256.747
259.0000	-0.452618	256.866
258.8000	-0.455118	256.988
258.6000	-0.457458	257.111
258.4000	-0.455891	257.235
258.2000	-0.452388	257.361
258.0000	-0.439284	257.487
257.8000	-0.434838	257.612
257.6000	-0.437905	257.739
257.4000	-0.447855	257.865
257.2000	-0.445937	257.992
257.0000	-0.43402	258.12
256.8000	-0.431076	258.247
256.6000	-0.425248	258.373
256.4000	-0.425891	258.5
256.2000	-0.422809	258.627
256.0000	-0.417218	258.754
255.8000	-0.413171	258.881
255.6000	-0.417373	259.008
255.4000	-0.413101	259.136
255.2000	-0.418353	259.263
255.0000	-0.414139	259.392
254.8000	-0.412948	259.518
254.6000	-0.414565	259.645
254.4000	-0.409103	259.773
254.2000	-0.406218	259.904
254.0000	-0.408479	260.033
253.8000	-0.412983	260.161
253.6000	-0.411357	260.292
253.4000	-0.421237	260.423
253.2000	-0.427673	260.555
253.0000	-0.425318	260.688
252.8000	-0.430358	260.821
252.6000	-0.429714	260.953
252.4000	-0.432987	261.083
252.2000	-0.435309	261.214
252.0000	-0.442534	261.343
251.8000	-0.452275	261.474
251.6000	-0.459957	261.604
251.4000	-0.465302	261.733
251.2000	-0.477379	261.864
251.0000	-0.481262	261.997
250.8000	-0.487212	262.129
250.6000	-0.48874	262.262
250.4000	-0.496704	262.395
250.2000	-0.509723	262.527
250.0000	-0.509739	262.664
249.8000	-0.513696	262.798
249.6000	-0.522005	262.937
249.4000	-0.531053	263.077
249.2000	-0.53906	263.218
249.0000	-0.546414	263.36
248.8000	-0.549608	263.503
248.6000	-0.558694	263.646
248.4000	-0.563928	263.791
248.2000	-0.580811	263.936
248.0000	-0.588338	264.084
247.8000	-0.597682	264.232
247.6000	-0.606077	264.381
247.4000	-0.61623	264.532
247.2000	-0.620326	264.685
247.0000	-0.630167	264.84
246.8000	-0.638874	264.996
246.6000	-0.641322	265.153
246.4000	-0.638232	265.311
246.2000	-0.644203	265.471
246.0000	-0.658614	265.634
245.8000	-0.667522	265.799
245.6000	-0.690331	265.969
245.4000	-0.709099	266.144
245.2000	-0.725479	266.321
245.0000	-0.729521	266.501
244.8000	-0.741585	266.684
244.6000	-0.75319	266.869
244.4000	-0.759991	267.056
244.2000	-0.775604	267.244
244.0000	-0.792231	267.437
243.8000	-0.81209	267.63
243.6000	-0.823248	267.827
243.4000	-0.84111	268.027
243.2000	-0.869834	268.228
243.0000	-0.895393	268.434
242.8000	-0.92323	268.641
242.6000	-0.953424	268.852
242.4000	-0.972909	269.064
242.2000	-0.998424	269.281
242.0000	-1.03157	269.499
241.8000	-1.05969	269.723
241.6000	-1.098	269.951
241.4000	-1.1191	270.181
241.2000	-1.15555	270.418
241.0000	-1.18144	270.657
240.8000	-1.20864	270.902
240.6000	-1.2378	271.149
240.4000	-1.27671	271.4
240.2000	-1.31403	271.655
240.0000	-1.35415	271.914
239.8000	-1.40085	272.178
239.6000	-1.45305	272.448
239.4000	-1.51864	272.721
239.2000	-1.56316	272.997
239.0000	-1.61402	273.278
238.8000	-1.65861	273.56
238.6000	-1.7042	273.846
238.4000	-1.76226	274.138
238.2000	-1.81885	274.432
238.0000	-1.87526	274.731
237.8000	-1.93536	275.034
237.6000	-2.01085	275.341
237.4000	-2.07652	275.653
237.2000	-2.14284	275.971
237.0000	-2.20416	276.293
236.8000	-2.27829	276.619
236.6000	-2.35186	276.949
236.4000	-2.41412	277.283
236.2000	-2.48407	277.619
236.0000	-2.55282	277.959
235.8000	-2.60707	278.304
235.6000	-2.68559	278.652
235.4000	-2.76308	279.004
235.2000	-2.82624	279.36
235.0000	-2.89128	279.717
234.8000	-2.95973	280.077
234.6000	-3.04622	280.44
234.4000	-3.11012	280.804
234.2000	-3.18386	281.171
234.0000	-3.25159	281.539
233.8000	-3.34521	281.911
233.6000	-3.42089	282.284
233.4000	-3.50262	282.659
233.2000	-3.58425	283.036
233.0000	-3.66511	283.416
232.8000	-3.74985	283.796
232.6000	-3.82393	284.18
232.4000	-3.89439	284.566
232.2000	-3.95637	284.954
232.0000	-4.0302	285.341
231.8000	-4.11066	285.731
231.6000	-4.16771	286.122
231.4000	-4.24455	286.512
231.2000	-4.30976	286.904
231.0000	-4.37327	287.297
230.8000	-4.42127	287.689
230.6000	-4.47093	288.082
230.4000	-4.52795	288.472
230.2000	-4.58619	288.863
230.0000	-4.63727	289.252
229.8000	-4.689	289.642
229.6000	-4.75487	290.034
229.4000	-4.80988	290.427
229.2000	-4.85476	290.821
229.0000	-4.91558	291.217
228.8000	-4.96422	291.611
228.6000	-5.00565	292.005
228.4000	-5.06901	292.401
228.2000	-5.12538	292.796
228.0000	-5.16695	293.193
227.8000	-5.19831	293.592
227.6000	-5.24717	293.992
227.4000	-5.30579	294.394
227.2000	-5.36013	294.796
227.0000	-5.40459	295.199
226.8000	-5.44502	295.603
226.6000	-5.4846	296.009
226.4000	-5.50854	296.417
226.2000	-5.53222	296.826
226.0000	-5.54259	297.235
225.8000	-5.56112	297.646
225.6000	-5.58339	298.056
225.4000	-5.61447	298.469
225.2000	-5.63984	298.884
225.0000	-5.65977	299.298
224.8000	-5.68519	299.714
224.6000	-5.70188	300.132
224.4000	-5.73179	300.553
224.2000	-5.75717	300.978
224.0000	-5.76819	301.405
223.8000	-5.7785	301.835
223.6000	-5.78889	302.268
223.4000	-5.79945	302.706
223.2000	-5.81575	303.146
223.0000	-5.82787	303.59
222.8000	-5.82822	304.035
222.6000	-5.83649	304.482
222.4000	-5.8375	304.935
222.2000	-5.84279	305.39
222.0000	-5.85509	305.849
221.8000	-5.87043	306.314
221.6000	-5.87125	306.782
221.4000	-5.87473	307.256
221.2000	-5.88402	307.734
221.0000	-5.88982	308.218
220.8000	-5.88604	308.708
220.6000	-5.87263	309.2
220.4000	-5.86567	309.702
220.2000	-5.84406	310.206
220.0000	-5.84298	310.718
219.8000	-5.84128	311.235
219.6000	-5.83452	311.757
219.4000	-5.8208	312.287
219.2000	-5.82236	312.827
219.0000	-5.82167	313.372
218.8000	-5.84303	313.926
218.6000	-5.83696	314.488
218.4000	-5.82064	315.058
218.2000	-5.81566	315.638
218.0000	-5.82773	316.226
217.8000	-5.82617	316.823
217.6000	-5.82402	317.431
217.4000	-5.81142	318.046
217.2000	-5.82967	318.674
217.0000	-5.85567	319.313
216.8000	-5.8775	319.965
216.6000	-5.89373	320.63
216.4000	-5.91071	321.309
216.2000	-5.90089	322.003
216.0000	-5.91179	322.713
215.8000	-5.93246	323.437
215.6000	-5.95253	324.176
215.4000	-5.93768	324.932
215.2000	-5.91663	325.704
215.0000	-5.89709	326.491
214.8000	-5.8845	327.296
214.6000	-5.87949	328.12
214.4000	-5.88099	328.966
214.2000	-5.89901	329.829
214.0000	-5.91543	330.712
213.8000	-5.93305	331.614
213.6000	-5.97988	332.539
213.4000	-6.0116	333.485
213.2000	-6.03481	334.455
213.0000	-6.06212	335.45
212.8000	-6.08745	336.47
212.6000	-6.11383	337.515
212.4000	-6.1548	338.585
212.2000	-6.20662	339.683
212.0000	-6.21365	340.81
211.8000	-6.22351	341.966
211.6000	-6.26613	343.15
211.4000	-6.28258	344.364
211.2000	-6.2704	345.61
211.0000	-6.26811	346.887
210.8000	-6.27531	348.196
210.6000	-6.28524	349.538
210.4000	-6.27662	350.916
210.2000	-6.28063	352.328
210.0000	-6.25293	353.773
209.8000	-6.22203	355.254
209.6000	-6.17409	356.769
209.4000	-6.16801	358.323
209.2000	-6.14965	359.915
209.0000	-6.11547	361.548
208.8000	-6.08549	363.221
208.6000	-6.08305	364.933
208.4000	-6.07666	366.687
208.2000	-6.09734	368.483
208.0000	-6.10558	370.322
207.8000	-6.10052	372.205
207.6000	-6.03969	374.13
207.4000	-5.99853	376.103
207.2000	-5.96457	378.119
207.0000	-5.92689	380.184
206.8000	-5.8307	382.3
206.6000	-5.75669	384.465
206.4000	-5.65053	386.678
206.2000	-5.56908	388.943
206.0000	-5.48214	391.262
205.8000	-5.41119	393.634
205.6000	-5.30831	396.064
205.4000	-5.17096	398.551
205.2000	-5.05962	401.095
205.0000	-4.94851	403.695
204.8000	-4.84524	406.355
204.6000	-4.73298	409.074
204.4000	-4.59685	411.852
204.2000	-4.48897	414.697
204.0000	-4.30865	417.605
203.8000	-4.16442	420.575
203.6000	-4.01803	423.611
203.4000	-3.87905	426.717
203.2000	-3.75394	429.892
203.0000	-3.60694	433.137
202.8000	-3.45421	436.458
202.6000	-3.22921	439.852
202.4000	-3.02216	443.321
202.2000	-2.82794	446.867
202.0000	-2.58913	450.495
201.8000	-2.36253	454.207
201.6000	-2.14595	457.998
201.4000	-1.85488	461.874
201.2000	-1.57233	465.84
201.0000	-1.35537	469.895
200.8000	-1.17432	474.041
200.6000	-0.969339	478.279
200.4000	-0.683632	482.622
200.2000	-0.421983	487.069
200.0000	-0.145407	491.62
199.8000	0.045682	496.281
199.6000	0.278348	501.054
199.4000	0.499351	505.938
199.2000	0.746216	510.936
199.0000	0.972739	516.056
198.8000	1.25386	521.302
198.6000	1.48645	526.676
198.4000	1.74595	532.182
198.2000	2.01212	537.833
198.0000	2.19108	543.643
197.8000	2.52	549.612
197.6000	2.74681	555.742
197.4000	2.96842	562.037
197.2000	3.15396	568.509
197.0000	3.16685	575.16
196.8000	3.17173	581.99
196.6000	3.26701	589.004
196.4000	3.64664	596.204
196.2000	4.08718	603.597
196.0000	4.29781	611.183
195.8000	3.98295	618.954
195.6000	3.96868	626.905
195.4000	3.62202	635.038
195.2000	3.71228	643.339
195.0000	3.34914	651.794
