TITLE	PE4_GEF_Assay_Scan_afterMelt
DATA TYPE	
ORIGIN	JASCO
OWNER	
DATE	18/08/28
TIME	13:13:00
SPECTROMETER/DATA SYSTEM	JASCO Corp., J-715, Rev. 1.00
RESOLUTION	
DELTAX	-0.2
XUNITS	NANOMETERS
YUNITS	CD[mdeg]
Y2UNITS	HT[V]
FIRSTX	280.0000
LASTX	195.0000
NPOINTS	426
FIRSTY	-0.44840
MAXY	6.07090
MINY	-6.42017
XYDATA
280.0000	-0.4484	242.122
279.8000	-0.444607	242.135
279.6000	-0.444865	242.153
279.4000	-0.446212	242.181
279.2000	-0.444192	242.219
279.0000	-0.436167	242.264
278.8000	-0.437383	242.316
278.6000	-0.440276	242.377
278.4000	-0.445714	242.444
278.2000	-0.450417	242.52
278.0000	-0.447304	242.604
277.8000	-0.452918	242.699
277.6000	-0.457668	242.803
277.4000	-0.45829	242.917
277.2000	-0.451225	243.031
277.0000	-0.460473	243.149
276.8000	-0.463559	243.267
276.6000	-0.46576	243.384
276.4000	-0.471098	243.5
276.2000	-0.474622	243.619
276.0000	-0.478904	243.737
275.8000	-0.477685	243.858
275.6000	-0.477701	243.98
275.4000	-0.476638	244.103
275.2000	-0.477279	244.225
275.0000	-0.474463	244.347
274.8000	-0.473171	244.468
274.6000	-0.480374	244.586
274.4000	-0.482071	244.705
274.2000	-0.481973	244.824
274.0000	-0.48692	244.944
273.8000	-0.493742	245.065
273.6000	-0.502897	245.188
273.4000	-0.505447	245.312
273.2000	-0.505382	245.436
273.0000	-0.506986	245.562
272.8000	-0.50461	245.688
272.6000	-0.510288	245.816
272.4000	-0.517211	245.946
272.2000	-0.532613	246.078
272.0000	-0.538138	246.214
271.8000	-0.54261	246.351
271.6000	-0.549488	246.488
271.4000	-0.550942	246.627
271.2000	-0.554962	246.768
271.0000	-0.551993	246.906
270.8000	-0.548124	247.045
270.6000	-0.542047	247.184
270.4000	-0.539154	247.322
270.2000	-0.543199	247.461
270.0000	-0.55596	247.597
269.8000	-0.555503	247.732
269.6000	-0.559613	247.862
269.4000	-0.553944	247.992
269.2000	-0.547622	248.12
269.0000	-0.548206	248.25
268.8000	-0.546075	248.376
268.6000	-0.541443	248.5
268.4000	-0.544397	248.624
268.2000	-0.549866	248.747
268.0000	-0.548702	248.869
267.8000	-0.562606	248.992
267.6000	-0.57412	249.114
267.4000	-0.567716	249.237
267.2000	-0.56662	249.36
267.0000	-0.566037	249.483
266.8000	-0.564411	249.605
266.6000	-0.563438	249.73
266.4000	-0.566687	249.853
266.2000	-0.571623	249.975
266.0000	-0.582479	250.095
265.8000	-0.586668	250.217
265.6000	-0.580788	250.338
265.4000	-0.596866	250.458
265.2000	-0.610836	250.575
265.0000	-0.604958	250.692
264.8000	-0.607573	250.81
264.6000	-0.613122	250.924
264.4000	-0.619529	251.037
264.2000	-0.623161	251.153
264.0000	-0.629327	251.268
263.8000	-0.633867	251.382
263.6000	-0.634953	251.491
263.4000	-0.641164	251.607
263.2000	-0.655713	251.72
263.0000	-0.666471	251.835
262.8000	-0.678237	251.952
262.6000	-0.679931	252.069
262.4000	-0.676267	252.189
262.2000	-0.690633	252.31
262.0000	-0.702282	252.432
261.8000	-0.703097	252.559
261.6000	-0.712899	252.684
261.4000	-0.713314	252.809
261.2000	-0.71543	252.936
261.0000	-0.721628	253.068
260.8000	-0.726349	253.204
260.6000	-0.737888	253.34
260.4000	-0.740459	253.478
260.2000	-0.749703	253.618
260.0000	-0.758511	253.759
259.8000	-0.765222	253.902
259.6000	-0.777208	254.046
259.4000	-0.7691	254.187
259.2000	-0.786638	254.329
259.0000	-0.79912	254.473
258.8000	-0.803895	254.616
258.6000	-0.823563	254.76
258.4000	-0.840463	254.904
258.2000	-0.844631	255.044
258.0000	-0.848819	255.188
257.8000	-0.844225	255.333
257.6000	-0.844004	255.479
257.4000	-0.83876	255.624
257.2000	-0.834855	255.77
257.0000	-0.845704	255.916
256.8000	-0.859167	256.063
256.6000	-0.864531	256.212
256.4000	-0.872333	256.363
256.2000	-0.879912	256.517
256.0000	-0.879011	256.672
255.8000	-0.870294	256.828
255.6000	-0.874975	256.983
255.4000	-0.891087	257.14
255.2000	-0.901277	257.296
255.0000	-0.9069	257.454
254.8000	-0.919755	257.613
254.6000	-0.940741	257.774
254.4000	-0.94941	257.935
254.2000	-0.949982	258.097
254.0000	-0.956991	258.258
253.8000	-0.970736	258.42
253.6000	-0.987336	258.581
253.4000	-1.00654	258.742
253.2000	-1.03504	258.904
253.0000	-1.0457	259.067
252.8000	-1.07014	259.232
252.6000	-1.08609	259.395
252.4000	-1.09355	259.557
252.2000	-1.11461	259.72
252.0000	-1.12364	259.882
251.8000	-1.14185	260.044
251.6000	-1.15678	260.204
251.4000	-1.17919	260.365
251.2000	-1.19354	260.53
251.0000	-1.20662	260.696
250.8000	-1.21599	260.862
250.6000	-1.22025	261.027
250.4000	-1.23581	261.193
250.2000	-1.2497	261.359
250.0000	-1.26201	261.527
249.8000	-1.2758	261.694
249.6000	-1.28225	261.863
249.4000	-1.297	262.029
249.2000	-1.31013	262.198
249.0000	-1.3222	262.369
248.8000	-1.34035	262.543
248.6000	-1.36002	262.721
248.4000	-1.37926	262.899
248.2000	-1.39585	263.081
248.0000	-1.41674	263.265
247.8000	-1.44114	263.455
247.6000	-1.4617	263.644
247.4000	-1.47664	263.836
247.2000	-1.50479	264.031
247.0000	-1.52751	264.229
246.8000	-1.54632	264.432
246.6000	-1.57175	264.637
246.4000	-1.5954	264.847
246.2000	-1.61796	265.062
246.0000	-1.64251	265.28
245.8000	-1.6607	265.497
245.6000	-1.67988	265.718
245.4000	-1.70546	265.939
245.2000	-1.72841	266.163
245.0000	-1.7526	266.391
244.8000	-1.77997	266.625
244.6000	-1.80596	266.864
244.4000	-1.82177	267.104
244.2000	-1.85565	267.345
244.0000	-1.89134	267.593
243.8000	-1.9211	267.845
243.6000	-1.95013	268.102
243.4000	-1.97904	268.363
243.2000	-2.00757	268.628
243.0000	-2.03701	268.898
242.8000	-2.07901	269.175
242.6000	-2.1043	269.457
242.4000	-2.14483	269.743
242.2000	-2.17543	270.037
242.0000	-2.22501	270.334
241.8000	-2.26567	270.638
241.6000	-2.30811	270.946
241.4000	-2.33789	271.261
241.2000	-2.38095	271.578
241.0000	-2.41511	271.901
240.8000	-2.45682	272.228
240.6000	-2.48763	272.558
240.4000	-2.53444	272.895
240.2000	-2.58399	273.238
240.0000	-2.62221	273.586
239.8000	-2.67235	273.938
239.6000	-2.71915	274.297
239.4000	-2.74807	274.658
239.2000	-2.78703	275.028
239.0000	-2.84034	275.401
238.8000	-2.89387	275.781
238.6000	-2.95245	276.165
238.4000	-3.01199	276.555
238.2000	-3.08145	276.949
238.0000	-3.13239	277.35
237.8000	-3.18865	277.753
237.6000	-3.23664	278.162
237.4000	-3.30457	278.577
237.2000	-3.36431	278.999
237.0000	-3.42966	279.426
236.8000	-3.49497	279.856
236.6000	-3.59013	280.287
236.4000	-3.66349	280.722
236.2000	-3.72367	281.162
236.0000	-3.78268	281.608
235.8000	-3.83785	282.056
235.6000	-3.89004	282.509
235.4000	-3.94725	282.962
235.2000	-4.02179	283.417
235.0000	-4.09298	283.877
234.8000	-4.15156	284.338
234.6000	-4.20902	284.798
234.4000	-4.25292	285.258
234.2000	-4.30069	285.72
234.0000	-4.3531	286.184
233.8000	-4.40443	286.651
233.6000	-4.46312	287.119
233.4000	-4.51635	287.587
233.2000	-4.56808	288.054
233.0000	-4.61798	288.521
232.8000	-4.67997	288.985
232.6000	-4.73782	289.452
232.4000	-4.79627	289.917
232.2000	-4.8546	290.379
232.0000	-4.91548	290.842
231.8000	-4.98358	291.302
231.6000	-5.04559	291.763
231.4000	-5.10786	292.221
231.2000	-5.17276	292.681
231.0000	-5.22566	293.142
230.8000	-5.28033	293.604
230.6000	-5.33917	294.068
230.4000	-5.41004	294.535
230.2000	-5.46301	295.007
230.0000	-5.5127	295.479
229.8000	-5.56885	295.952
229.6000	-5.6249	296.427
229.4000	-5.6611	296.904
229.2000	-5.69682	297.383
229.0000	-5.75362	297.863
228.8000	-5.79877	298.344
228.6000	-5.83561	298.824
228.4000	-5.86	299.301
228.2000	-5.89859	299.777
228.0000	-5.94	300.251
227.8000	-5.97498	300.724
227.6000	-6.01689	301.195
227.4000	-6.05238	301.665
227.2000	-6.10541	302.137
227.0000	-6.13409	302.613
226.8000	-6.16012	303.092
226.6000	-6.17933	303.572
226.4000	-6.21906	304.055
226.2000	-6.24393	304.541
226.0000	-6.28775	305.031
225.8000	-6.31343	305.527
225.6000	-6.34101	306.027
225.4000	-6.37426	306.533
225.2000	-6.38276	307.041
225.0000	-6.38543	307.553
224.8000	-6.38794	308.068
224.6000	-6.3822	308.588
224.4000	-6.37876	309.113
224.2000	-6.39116	309.641
224.0000	-6.40253	310.174
223.8000	-6.42017	310.709
223.6000	-6.41974	311.25
223.4000	-6.41678	311.794
223.2000	-6.38663	312.341
223.0000	-6.39396	312.893
222.8000	-6.37965	313.448
222.6000	-6.34414	314.004
222.4000	-6.34215	314.568
222.2000	-6.33384	315.137
222.0000	-6.32248	315.712
221.8000	-6.29565	316.29
221.6000	-6.27071	316.869
221.4000	-6.23278	317.453
221.2000	-6.21579	318.041
221.0000	-6.17624	318.635
220.8000	-6.11877	319.235
220.6000	-6.08199	319.839
220.4000	-6.02714	320.449
220.2000	-5.95647	321.067
220.0000	-5.90108	321.695
219.8000	-5.84719	322.333
219.6000	-5.80706	322.977
219.4000	-5.72788	323.629
219.2000	-5.66929	324.297
219.0000	-5.6062	324.976
218.8000	-5.53854	325.664
218.6000	-5.44176	326.363
218.4000	-5.32651	327.075
218.2000	-5.23042	327.796
218.0000	-5.14276	328.527
217.8000	-5.03065	329.274
217.6000	-4.92501	330.032
217.4000	-4.8323	330.801
217.2000	-4.73062	331.583
217.0000	-4.60896	332.375
216.8000	-4.46918	333.18
216.6000	-4.32985	333.994
216.4000	-4.1938	334.817
216.2000	-4.0666	335.655
216.0000	-3.91648	336.51
215.8000	-3.81182	337.379
215.6000	-3.68639	338.266
215.4000	-3.57183	339.172
215.2000	-3.43335	340.093
215.0000	-3.32432	341.033
214.8000	-3.21459	341.995
214.6000	-3.07617	342.976
214.4000	-2.93038	343.977
214.2000	-2.78685	345.002
214.0000	-2.64288	346.052
213.8000	-2.5225	347.129
213.6000	-2.34834	348.23
213.4000	-2.19322	349.358
213.2000	-2.06481	350.509
213.0000	-1.89494	351.686
212.8000	-1.70143	352.888
212.6000	-1.52349	354.118
212.4000	-1.34439	355.374
212.2000	-1.12187	356.656
212.0000	-0.913051	357.965
211.8000	-0.728876	359.301
211.6000	-0.564073	360.665
211.4000	-0.397276	362.056
211.2000	-0.188297	363.477
211.0000	-0.0249385	364.928
210.8000	0.137039	366.409
210.6000	0.336921	367.922
210.4000	0.550401	369.468
210.2000	0.740529	371.048
210.0000	0.936446	372.656
209.8000	1.0737	374.297
209.6000	1.24444	375.975
209.4000	1.4252	377.685
209.2000	1.61134	379.431
209.0000	1.81025	381.21
208.8000	2.02194	383.023
208.6000	2.19231	384.866
208.4000	2.39262	386.735
208.2000	2.56164	388.634
208.0000	2.7537	390.568
207.8000	2.93791	392.535
207.6000	3.14185	394.535
207.4000	3.35795	396.571
207.2000	3.54332	398.638
207.0000	3.7311	400.734
206.8000	3.9014	402.861
206.6000	4.09015	405.018
206.4000	4.22614	407.205
206.2000	4.40906	409.422
206.0000	4.53293	411.667
205.8000	4.66237	413.944
205.6000	4.87379	416.251
205.4000	5.02283	418.583
205.2000	5.13236	420.939
205.0000	5.2517	423.317
204.8000	5.3979	425.719
204.6000	5.47903	428.147
204.4000	5.5285	430.602
204.2000	5.63624	433.087
204.0000	5.64481	435.601
203.8000	5.69689	438.146
203.6000	5.70417	440.725
203.4000	5.79894	443.338
203.2000	5.8166	445.988
203.0000	5.86834	448.677
202.8000	5.91432	451.403
202.6000	5.9744	454.173
202.4000	5.97776	456.982
202.2000	5.9818	459.825
202.0000	5.9104	462.703
201.8000	5.92496	465.619
201.6000	5.90057	468.575
201.4000	5.97094	471.576
201.2000	5.99627	474.621
201.0000	5.97715	477.71
200.8000	6.01041	480.845
200.6000	5.92945	484.033
200.4000	5.9745	487.273
200.2000	6.0709	490.572
200.0000	5.95649	493.931
199.8000	5.86557	497.352
199.6000	5.78892	500.837
199.4000	5.8608	504.388
199.2000	5.82509	508.008
199.0000	5.82485	511.705
198.8000	5.81009	515.477
198.6000	5.75239	519.326
198.4000	5.7448	523.257
198.2000	5.77456	527.275
198.0000	5.71325	531.385
197.8000	5.61952	535.59
197.6000	5.58867	539.89
197.4000	5.46216	544.282
197.2000	5.44497	548.773
197.0000	5.2969	553.389
196.8000	5.34282	558.14
196.6000	5.19499	563.042
196.4000	5.13858	568.089
196.2000	5.3099	573.305
196.0000	5.1262	578.707
195.8000	4.85404	584.303
195.6000	4.86291	590.11
195.4000	4.91665	596.136
195.2000	5.21387	602.386
195.0000	5.22134	608.884
