TITLE	20201112_F28V_GDP_melted
DATA TYPE	
ORIGIN	JASCO
OWNER	
DATE	20/11/12
TIME	20:22:15
SPECTROMETER/DATA SYSTEM	JASCO Corp., J-715, Rev. 1.00
RESOLUTION	
DELTAX	-0.2
XUNITS	NANOMETERS
YUNITS	CD[mdeg]
Y2UNITS	HT[V]
FIRSTX	280.0000
LASTX	195.0000
NPOINTS	426
FIRSTY	-6.82720
MAXY	5.28364
MINY	-20.92403
XYDATA
280.0000	-6.8272	280.159
279.8000	-6.83263	280.172
279.6000	-6.83666	280.196
279.4000	-6.83209	280.233
279.2000	-6.81028	280.276
279.0000	-6.80547	280.329
278.8000	-6.80584	280.397
278.6000	-6.7962	280.473
278.4000	-6.76654	280.559
278.2000	-6.77539	280.652
278.0000	-6.7774	280.756
277.8000	-6.77581	280.871
277.6000	-6.76474	280.994
277.4000	-6.76062	281.126
277.2000	-6.73493	281.264
277.0000	-6.71403	281.397
276.8000	-6.68716	281.53
276.6000	-6.68805	281.664
276.4000	-6.69856	281.802
276.2000	-6.67942	281.935
276.0000	-6.66295	282.071
275.8000	-6.64819	282.204
275.6000	-6.6418	282.341
275.4000	-6.61654	282.474
275.2000	-6.59857	282.607
275.0000	-6.57196	282.744
274.8000	-6.55647	282.88
274.6000	-6.54542	283.011
274.4000	-6.54564	283.144
274.2000	-6.52915	283.28
274.0000	-6.5085	283.418
273.8000	-6.48049	283.55
273.6000	-6.45381	283.684
273.4000	-6.43307	283.821
273.2000	-6.41889	283.962
273.0000	-6.41726	284.101
272.8000	-6.38956	284.237
272.6000	-6.38388	284.377
272.4000	-6.36027	284.522
272.2000	-6.34214	284.669
272.0000	-6.32105	284.818
271.8000	-6.28311	284.972
271.6000	-6.24677	285.127
271.4000	-6.23161	285.283
271.2000	-6.22106	285.438
271.0000	-6.20239	285.599
270.8000	-6.17357	285.755
270.6000	-6.16083	285.909
270.4000	-6.13559	286.061
270.2000	-6.11073	286.214
270.0000	-6.10039	286.363
269.8000	-6.08209	286.509
269.6000	-6.07913	286.648
269.4000	-6.06084	286.786
269.2000	-6.06529	286.925
269.0000	-6.04867	287.06
268.8000	-6.05329	287.189
268.6000	-6.02911	287.315
268.4000	-6.00821	287.445
268.2000	-5.99302	287.573
268.0000	-5.95959	287.698
267.8000	-5.92961	287.824
267.6000	-5.91597	287.952
267.4000	-5.90035	288.082
267.2000	-5.86822	288.214
267.0000	-5.83946	288.346
266.8000	-5.81259	288.472
266.6000	-5.78718	288.601
266.4000	-5.75694	288.727
266.2000	-5.75595	288.851
266.0000	-5.74861	288.976
265.8000	-5.7244	289.106
265.6000	-5.71062	289.231
265.4000	-5.72132	289.357
265.2000	-5.71308	289.478
265.0000	-5.70319	289.594
264.8000	-5.68919	289.711
264.6000	-5.67959	289.824
264.4000	-5.68457	289.937
264.2000	-5.67762	290.052
264.0000	-5.6781	290.166
263.8000	-5.68651	290.278
263.6000	-5.67416	290.393
263.4000	-5.65218	290.508
263.2000	-5.64263	290.622
263.0000	-5.65228	290.737
262.8000	-5.64721	290.85
262.6000	-5.65791	290.962
262.4000	-5.66343	291.083
262.2000	-5.66329	291.206
262.0000	-5.66057	291.332
261.8000	-5.67587	291.459
261.6000	-5.67895	291.591
261.4000	-5.68679	291.728
261.2000	-5.70983	291.868
261.0000	-5.71995	292.007
260.8000	-5.74394	292.149
260.6000	-5.76899	292.295
260.4000	-5.78835	292.441
260.2000	-5.80797	292.591
260.0000	-5.83176	292.744
259.8000	-5.83529	292.9
259.6000	-5.8529	293.057
259.4000	-5.88256	293.208
259.2000	-5.89926	293.359
259.0000	-5.91971	293.505
258.8000	-5.94359	293.653
258.6000	-5.97364	293.798
258.4000	-5.96991	293.947
258.2000	-5.99899	294.09
258.0000	-6.01971	294.237
257.8000	-6.04393	294.383
257.6000	-6.065	294.53
257.4000	-6.08612	294.674
257.2000	-6.10724	294.819
257.0000	-6.1332	294.963
256.8000	-6.16092	295.108
256.6000	-6.17997	295.258
256.4000	-6.19816	295.411
256.2000	-6.23393	295.569
256.0000	-6.2729	295.725
255.8000	-6.30177	295.88
255.6000	-6.33396	296.036
255.4000	-6.35295	296.195
255.2000	-6.37433	296.356
255.0000	-6.38982	296.516
254.8000	-6.41622	296.677
254.6000	-6.4253	296.839
254.4000	-6.44723	297.006
254.2000	-6.46945	297.171
254.0000	-6.49695	297.338
253.8000	-6.5229	297.503
253.6000	-6.56149	297.666
253.4000	-6.57012	297.83
253.2000	-6.59696	297.997
253.0000	-6.61229	298.165
252.8000	-6.63571	298.329
252.6000	-6.65897	298.494
252.4000	-6.68234	298.653
252.2000	-6.72653	298.814
252.0000	-6.75428	298.979
251.8000	-6.7966	299.138
251.6000	-6.83419	299.294
251.4000	-6.84293	299.455
251.2000	-6.88126	299.617
251.0000	-6.89927	299.774
250.8000	-6.91588	299.931
250.6000	-6.93235	300.089
250.4000	-6.9494	300.248
250.2000	-6.97018	300.411
250.0000	-6.99359	300.573
249.8000	-7.01862	300.737
249.6000	-7.03548	300.904
249.4000	-7.04837	301.069
249.2000	-7.06132	301.233
249.0000	-7.07411	301.405
248.8000	-7.10718	301.583
248.6000	-7.12959	301.761
248.4000	-7.13713	301.941
248.2000	-7.15557	302.125
248.0000	-7.18582	302.315
247.8000	-7.19004	302.508
247.6000	-7.21173	302.703
247.4000	-7.24226	302.899
247.2000	-7.25109	303.094
247.0000	-7.28012	303.291
246.8000	-7.32272	303.493
246.6000	-7.34628	303.698
246.4000	-7.37685	303.908
246.2000	-7.41452	304.115
246.0000	-7.42632	304.326
245.8000	-7.46193	304.541
245.6000	-7.4864	304.762
245.4000	-7.49456	304.979
245.2000	-7.51758	305.198
245.0000	-7.56608	305.42
244.8000	-7.58715	305.646
244.6000	-7.60583	305.879
244.4000	-7.64997	306.117
244.2000	-7.68342	306.358
244.0000	-7.69592	306.609
243.8000	-7.7314	306.861
243.6000	-7.75416	307.118
243.4000	-7.78422	307.385
243.2000	-7.8448	307.655
243.0000	-7.87421	307.929
242.8000	-7.94096	308.211
242.6000	-7.99686	308.506
242.4000	-8.05477	308.809
242.2000	-8.09678	309.112
242.0000	-8.16322	309.418
241.8000	-8.22558	309.735
241.6000	-8.28658	310.057
241.4000	-8.35328	310.389
241.2000	-8.421	310.725
241.0000	-8.48241	311.065
240.8000	-8.56919	311.413
240.6000	-8.63634	311.763
240.4000	-8.69405	312.124
240.2000	-8.77652	312.49
240.0000	-8.83138	312.857
239.8000	-8.90019	313.228
239.6000	-8.98262	313.609
239.4000	-9.05748	314.006
239.2000	-9.15308	314.41
239.0000	-9.25434	314.818
238.8000	-9.33717	315.232
238.6000	-9.4191	315.648
238.4000	-9.51281	316.072
238.2000	-9.60922	316.51
238.0000	-9.72142	316.95
237.8000	-9.81944	317.396
237.6000	-9.92088	317.851
237.4000	-10.0311	318.312
237.2000	-10.1616	318.783
237.0000	-10.2774	319.26
236.8000	-10.3872	319.74
236.6000	-10.5136	320.221
236.4000	-10.6204	320.711
236.2000	-10.7213	321.208
236.0000	-10.8403	321.71
235.8000	-10.9715	322.222
235.6000	-11.1092	322.742
235.4000	-11.2232	323.262
235.2000	-11.3427	323.79
235.0000	-11.48	324.317
234.8000	-11.6175	324.853
234.6000	-11.7632	325.391
234.4000	-11.9043	325.929
234.2000	-12.0392	326.475
234.0000	-12.2048	327.025
233.8000	-12.3598	327.585
233.6000	-12.5354	328.148
233.4000	-12.7182	328.711
233.2000	-12.8838	329.276
233.0000	-13.0315	329.844
232.8000	-13.1896	330.41
232.6000	-13.3886	330.976
232.4000	-13.531	331.548
232.2000	-13.7102	332.118
232.0000	-13.8631	332.687
231.8000	-14.0063	333.259
231.6000	-14.1635	333.829
231.4000	-14.3292	334.403
231.2000	-14.4763	334.98
231.0000	-14.6342	335.556
230.8000	-14.7745	336.13
230.6000	-14.9412	336.709
230.4000	-15.0856	337.295
230.2000	-15.2341	337.881
230.0000	-15.3721	338.471
229.8000	-15.5198	339.059
229.6000	-15.6673	339.648
229.4000	-15.8393	340.247
229.2000	-15.9771	340.847
229.0000	-16.1301	341.452
228.8000	-16.311	342.059
228.6000	-16.4438	342.659
228.4000	-16.5829	343.254
228.2000	-16.7275	343.848
228.0000	-16.8861	344.445
227.8000	-17.0253	345.036
227.6000	-17.1569	345.624
227.4000	-17.3246	346.216
227.2000	-17.44	346.806
227.0000	-17.5982	347.402
226.8000	-17.726	347.999
226.6000	-17.8386	348.593
226.4000	-17.9956	349.189
226.2000	-18.1508	349.785
226.0000	-18.2824	350.384
225.8000	-18.4091	350.983
225.6000	-18.4936	351.594
225.4000	-18.6194	352.209
225.2000	-18.7308	352.828
225.0000	-18.8498	353.447
224.8000	-18.9437	354.066
224.6000	-19.0717	354.692
224.4000	-19.1964	355.32
224.2000	-19.2834	355.952
224.0000	-19.3758	356.585
223.8000	-19.4737	357.22
223.6000	-19.5481	357.859
223.4000	-19.621	358.501
223.2000	-19.685	359.147
223.0000	-19.793	359.794
222.8000	-19.8709	360.445
222.6000	-19.9376	361.098
222.4000	-19.9886	361.751
222.2000	-20.0798	362.411
222.0000	-20.1384	363.075
221.8000	-20.202	363.738
221.6000	-20.2314	364.403
221.4000	-20.3184	365.07
221.2000	-20.3844	365.738
221.0000	-20.4358	366.415
220.8000	-20.5092	367.094
220.6000	-20.5541	367.773
220.4000	-20.5943	368.46
220.2000	-20.6186	369.152
220.0000	-20.6755	369.842
219.8000	-20.742	370.543
219.6000	-20.7592	371.252
219.4000	-20.8182	371.967
219.2000	-20.8609	372.696
219.0000	-20.8873	373.435
218.8000	-20.9031	374.181
218.6000	-20.8673	374.936
218.4000	-20.8971	375.697
218.2000	-20.8861	376.468
218.0000	-20.8927	377.252
217.8000	-20.9082	378.045
217.6000	-20.924	378.846
217.4000	-20.917	379.656
217.2000	-20.8617	380.485
217.0000	-20.8231	381.317
216.8000	-20.7972	382.168
216.6000	-20.7455	383.02
216.4000	-20.6847	383.881
216.2000	-20.6314	384.753
216.0000	-20.6494	385.64
215.8000	-20.6185	386.539
215.6000	-20.5213	387.45
215.4000	-20.4798	388.38
215.2000	-20.4253	389.327
215.0000	-20.3516	390.294
214.8000	-20.2542	391.281
214.6000	-20.1823	392.286
214.4000	-20.111	393.306
214.2000	-20.0694	394.342
214.0000	-19.9987	395.408
213.8000	-19.9335	396.499
213.6000	-19.8709	397.614
213.4000	-19.7889	398.76
213.2000	-19.6673	399.93
213.0000	-19.5354	401.121
212.8000	-19.4653	402.34
212.6000	-19.3831	403.58
212.4000	-19.3497	404.845
212.2000	-19.2787	406.133
212.0000	-19.1624	407.449
211.8000	-19.0758	408.798
211.6000	-18.9687	410.176
211.4000	-18.8585	411.581
211.2000	-18.735	413.007
211.0000	-18.5763	414.468
210.8000	-18.4392	415.958
210.6000	-18.3669	417.473
210.4000	-18.2595	419.029
210.2000	-18.1205	420.624
210.0000	-17.9706	422.257
209.8000	-17.7173	423.925
209.6000	-17.4174	425.632
209.4000	-17.1907	427.379
209.2000	-17.0035	429.167
209.0000	-16.8201	430.995
208.8000	-16.6532	432.859
208.6000	-16.3737	434.767
208.4000	-16.1835	436.714
208.2000	-15.9029	438.699
208.0000	-15.6478	440.723
207.8000	-15.2893	442.786
207.6000	-15.0852	444.896
207.4000	-14.7602	447.05
207.2000	-14.4348	449.242
207.0000	-14.1948	451.478
206.8000	-14.0298	453.757
206.6000	-13.8044	456.082
206.4000	-13.4941	458.44
206.2000	-13.0984	460.842
206.0000	-12.8364	463.289
205.8000	-12.4214	465.777
205.6000	-12.0683	468.308
205.4000	-11.6695	470.882
205.2000	-11.3719	473.486
205.0000	-11.0381	476.121
204.8000	-10.6051	478.792
204.6000	-10.25	481.498
204.4000	-9.83349	484.239
204.2000	-9.51391	487.004
204.0000	-9.07474	489.804
203.8000	-8.58974	492.641
203.6000	-8.31346	495.507
203.4000	-7.81891	498.419
203.2000	-7.36119	501.361
203.0000	-6.99633	504.342
202.8000	-6.62082	507.359
202.6000	-6.16854	510.419
202.4000	-5.79512	513.526
202.2000	-5.3712	516.669
202.0000	-4.95893	519.851
201.8000	-4.65564	523.077
201.6000	-4.24227	526.348
201.4000	-3.86007	529.67
201.2000	-3.41933	533.034
201.0000	-2.98777	536.46
200.8000	-2.43504	539.946
200.6000	-2.03655	543.491
200.4000	-1.72086	547.095
200.2000	-1.34584	550.77
200.0000	-1.07782	554.515
199.8000	-0.91154	558.347
199.6000	-0.489598	562.258
199.4000	-0.327583	566.254
199.2000	-0.0762372	570.34
199.0000	0.310663	574.526
198.8000	0.815438	578.829
198.6000	1.35758	583.234
198.4000	1.5353	587.757
198.2000	1.81227	592.404
198.0000	2.17734	597.187
197.8000	2.60436	602.115
197.6000	2.90193	607.193
197.4000	3.4234	612.416
197.2000	3.56531	617.802
197.0000	3.87962	623.371
196.8000	4.28653	629.16
196.6000	4.58065	635.175
196.4000	5.07617	641.412
196.2000	5.28364	647.917
196.0000	5.09091	654.738
195.8000	4.95045	661.893
195.6000	5.20847	669.378
195.4000	4.96867	677.227
195.2000	4.99	685.472
195.0000	4.43402	694.11
