TITLE	20201112_Buffer
DATA TYPE	
ORIGIN	JASCO
OWNER	
DATE	20/11/12
TIME	14:20:08
SPECTROMETER/DATA SYSTEM	JASCO Corp., J-715, Rev. 1.00
RESOLUTION	
DELTAX	-0.2
XUNITS	NANOMETERS
YUNITS	CD[mdeg]
Y2UNITS	HT[V]
FIRSTX	280.0000
LASTX	195.0000
NPOINTS	426
FIRSTY	-6.97456
MAXY	-5.72528
MINY	-10.94199
XYDATA
280.0000	-6.97456	274.427
279.8000	-6.96849	274.443
279.6000	-6.95968	274.469
279.4000	-6.94167	274.501
279.2000	-6.94823	274.541
279.0000	-6.94573	274.589
278.8000	-6.9414	274.647
278.6000	-6.92715	274.713
278.4000	-6.91185	274.785
278.2000	-6.90566	274.869
278.0000	-6.8981	274.961
277.8000	-6.88192	275.059
277.6000	-6.86661	275.167
277.4000	-6.85332	275.288
277.2000	-6.84398	275.402
277.0000	-6.82759	275.515
276.8000	-6.80662	275.634
276.6000	-6.7852	275.756
276.4000	-6.76383	275.878
276.2000	-6.74387	275.993
276.0000	-6.72591	276.117
275.8000	-6.7067	276.24
275.6000	-6.68504	276.363
275.4000	-6.66203	276.49
275.2000	-6.63918	276.615
275.0000	-6.61576	276.744
274.8000	-6.59957	276.869
274.6000	-6.57367	276.991
274.4000	-6.53881	277.116
274.2000	-6.51788	277.24
274.0000	-6.50213	277.363
273.8000	-6.47986	277.485
273.6000	-6.46073	277.612
273.4000	-6.44761	277.741
273.2000	-6.44154	277.867
273.0000	-6.41572	277.994
272.8000	-6.40541	278.12
272.6000	-6.3908	278.252
272.4000	-6.35483	278.382
272.2000	-6.3318	278.519
272.0000	-6.31193	278.657
271.8000	-6.30593	278.8
271.6000	-6.30028	278.943
271.4000	-6.29185	279.089
271.2000	-6.27614	279.24
271.0000	-6.26178	279.391
270.8000	-6.24598	279.538
270.6000	-6.22569	279.685
270.4000	-6.21535	279.827
270.2000	-6.19289	279.97
270.0000	-6.16823	280.11
269.8000	-6.14599	280.245
269.6000	-6.13373	280.381
269.4000	-6.12078	280.515
269.2000	-6.09088	280.652
269.0000	-6.06844	280.78
268.8000	-6.04874	280.907
268.6000	-6.00275	281.036
268.4000	-5.9892	281.158
268.2000	-5.96382	281.277
268.0000	-5.94654	281.402
267.8000	-5.92502	281.528
267.6000	-5.90183	281.655
267.4000	-5.88042	281.779
267.2000	-5.85436	281.905
267.0000	-5.8628	282.032
266.8000	-5.84279	282.152
266.6000	-5.82579	282.272
266.4000	-5.81205	282.395
266.2000	-5.78662	282.509
266.0000	-5.77604	282.625
265.8000	-5.77274	282.74
265.6000	-5.7566	282.856
265.4000	-5.75592	282.972
265.2000	-5.76311	283.081
265.0000	-5.75516	283.191
264.8000	-5.75312	283.303
264.6000	-5.74709	283.411
264.4000	-5.73621	283.515
264.2000	-5.72528	283.621
264.0000	-5.73187	283.726
263.8000	-5.73458	283.83
263.6000	-5.74402	283.936
263.4000	-5.74604	284.043
263.2000	-5.75366	284.148
263.0000	-5.76701	284.255
262.8000	-5.76812	284.36
262.6000	-5.76048	284.467
262.4000	-5.75652	284.577
262.2000	-5.76604	284.689
262.0000	-5.77264	284.805
261.8000	-5.77543	284.924
261.6000	-5.77748	285.043
261.4000	-5.78087	285.167
261.2000	-5.79086	285.29
261.0000	-5.79599	285.418
260.8000	-5.80385	285.552
260.6000	-5.81143	285.685
260.4000	-5.82433	285.818
260.2000	-5.83629	285.95
260.0000	-5.85147	286.087
259.8000	-5.84983	286.221
259.6000	-5.86471	286.354
259.4000	-5.88866	286.488
259.2000	-5.91626	286.621
259.0000	-5.94832	286.754
258.8000	-5.97592	286.89
258.6000	-5.99941	287.02
258.4000	-6.00728	287.15
258.2000	-6.04562	287.277
258.0000	-6.06725	287.407
257.8000	-6.10202	287.537
257.6000	-6.11482	287.671
257.4000	-6.14215	287.804
257.2000	-6.16491	287.942
257.0000	-6.19312	288.075
256.8000	-6.2053	288.207
256.6000	-6.21573	288.343
256.4000	-6.22816	288.477
256.2000	-6.25227	288.61
256.0000	-6.26034	288.747
255.8000	-6.28826	288.889
255.6000	-6.29893	289.031
255.4000	-6.30855	289.174
255.2000	-6.32244	289.312
255.0000	-6.34097	289.451
254.8000	-6.3626	289.591
254.6000	-6.35524	289.73
254.4000	-6.3614	289.87
254.2000	-6.39711	290.016
254.0000	-6.41425	290.162
253.8000	-6.42278	290.306
253.6000	-6.42898	290.453
253.4000	-6.45583	290.607
253.2000	-6.47923	290.753
253.0000	-6.48476	290.896
252.8000	-6.5074	291.038
252.6000	-6.52981	291.179
252.4000	-6.53474	291.319
252.2000	-6.5516	291.463
252.0000	-6.57799	291.605
251.8000	-6.59954	291.743
251.6000	-6.6169	291.884
251.4000	-6.62778	292.021
251.2000	-6.64813	292.158
251.0000	-6.67777	292.294
250.8000	-6.68604	292.424
250.6000	-6.69612	292.553
250.4000	-6.71616	292.684
250.2000	-6.7333	292.816
250.0000	-6.73768	292.952
249.8000	-6.73802	293.092
249.6000	-6.74867	293.231
249.4000	-6.74901	293.369
249.2000	-6.75755	293.504
249.0000	-6.7648	293.64
248.8000	-6.76412	293.785
248.6000	-6.77858	293.929
248.4000	-6.79309	294.075
248.2000	-6.79216	294.226
248.0000	-6.79835	294.384
247.8000	-6.81223	294.543
247.6000	-6.8094	294.702
247.4000	-6.82812	294.862
247.2000	-6.84194	295.018
247.0000	-6.84135	295.176
246.8000	-6.84786	295.335
246.6000	-6.88227	295.497
246.4000	-6.89372	295.666
246.2000	-6.90557	295.837
246.0000	-6.92923	296.007
245.8000	-6.91855	296.178
245.6000	-6.93011	296.35
245.4000	-6.94815	296.519
245.2000	-6.9404	296.686
245.0000	-6.94749	296.857
244.8000	-6.94133	297.03
244.6000	-6.93015	297.207
244.4000	-6.93765	297.39
244.2000	-6.94507	297.569
244.0000	-6.95626	297.753
243.8000	-6.95964	297.945
243.6000	-6.97242	298.136
243.4000	-6.97175	298.326
243.2000	-6.95861	298.515
243.0000	-6.96056	298.714
242.8000	-6.94791	298.914
242.6000	-6.94283	299.117
242.4000	-6.96006	299.327
242.2000	-6.97114	299.539
242.0000	-6.98157	299.754
241.8000	-6.98033	299.971
241.6000	-6.9889	300.189
241.4000	-6.99658	300.412
241.2000	-6.98696	300.632
241.0000	-6.98419	300.853
240.8000	-6.99396	301.079
240.6000	-7.00348	301.309
240.4000	-7.01099	301.54
240.2000	-7.03399	301.773
240.0000	-7.04731	302.01
239.8000	-7.04195	302.247
239.6000	-7.04241	302.487
239.4000	-7.06591	302.726
239.2000	-7.07952	302.969
239.0000	-7.11224	303.215
238.8000	-7.1427	303.461
238.6000	-7.15621	303.712
238.4000	-7.19669	303.968
238.2000	-7.21109	304.223
238.0000	-7.2432	304.479
237.8000	-7.27678	304.736
237.6000	-7.30709	305
237.4000	-7.30593	305.267
237.2000	-7.33646	305.533
237.0000	-7.38766	305.803
236.8000	-7.42516	306.073
236.6000	-7.44709	306.344
236.4000	-7.47507	306.611
236.2000	-7.48572	306.89
236.0000	-7.5196	307.167
235.8000	-7.53002	307.442
235.6000	-7.55478	307.72
235.4000	-7.57736	307.996
235.2000	-7.58695	308.277
235.0000	-7.63525	308.554
234.8000	-7.68078	308.835
234.6000	-7.76835	309.112
234.4000	-7.80742	309.39
234.2000	-7.82148	309.669
234.0000	-7.84084	309.951
233.8000	-7.902	310.232
233.6000	-7.9395	310.518
233.4000	-7.96734	310.803
233.2000	-7.98872	311.092
233.0000	-8.03933	311.379
232.8000	-8.08541	311.665
232.6000	-8.14024	311.95
232.4000	-8.17593	312.235
232.2000	-8.18376	312.516
232.0000	-8.19271	312.798
231.8000	-8.21379	313.08
231.6000	-8.24726	313.363
231.4000	-8.29523	313.645
231.2000	-8.33085	313.928
231.0000	-8.34371	314.215
230.8000	-8.40116	314.499
230.6000	-8.47204	314.782
230.4000	-8.50956	315.07
230.2000	-8.54007	315.363
230.0000	-8.58037	315.653
229.8000	-8.61388	315.946
229.6000	-8.65382	316.24
229.4000	-8.7118	316.536
229.2000	-8.76359	316.835
229.0000	-8.77651	317.133
228.8000	-8.82219	317.434
228.6000	-8.85965	317.732
228.4000	-8.89789	318.025
228.2000	-8.91542	318.318
228.0000	-8.94526	318.608
227.8000	-8.98578	318.898
227.6000	-9.02129	319.185
227.4000	-9.05569	319.474
227.2000	-9.09541	319.765
227.0000	-9.14119	320.058
226.8000	-9.18861	320.358
226.6000	-9.23198	320.651
226.4000	-9.27993	320.944
226.2000	-9.33899	321.238
226.0000	-9.37734	321.532
225.8000	-9.41831	321.833
225.6000	-9.45707	322.14
225.4000	-9.49666	322.448
225.2000	-9.55882	322.758
225.0000	-9.5827	323.067
224.8000	-9.61596	323.372
224.6000	-9.65198	323.68
224.4000	-9.6663	323.992
224.2000	-9.7152	324.299
224.0000	-9.70114	324.607
223.8000	-9.7317	324.914
223.6000	-9.7671	325.223
223.4000	-9.78543	325.532
223.2000	-9.80857	325.836
223.0000	-9.8374	326.142
222.8000	-9.86604	326.448
222.6000	-9.87045	326.749
222.4000	-9.86423	327.055
222.2000	-9.91408	327.361
222.0000	-9.95417	327.667
221.8000	-9.98357	327.968
221.6000	-10.0134	328.268
221.4000	-10.0238	328.571
221.2000	-10.0611	328.877
221.0000	-10.0841	329.179
220.8000	-10.1008	329.477
220.6000	-10.1239	329.777
220.4000	-10.1622	330.082
220.2000	-10.2136	330.383
220.0000	-10.2794	330.684
219.8000	-10.3215	330.985
219.6000	-10.3341	331.29
219.4000	-10.3576	331.592
219.2000	-10.3781	331.9
219.0000	-10.4075	332.205
218.8000	-10.4266	332.512
218.6000	-10.4535	332.817
218.4000	-10.4875	333.123
218.2000	-10.4889	333.435
218.0000	-10.4987	333.747
217.8000	-10.5202	334.055
217.6000	-10.5061	334.367
217.4000	-10.5252	334.68
217.2000	-10.5341	334.991
217.0000	-10.561	335.303
216.8000	-10.586	335.615
216.6000	-10.5972	335.923
216.4000	-10.6133	336.234
216.2000	-10.6633	336.545
216.0000	-10.6975	336.86
215.8000	-10.7029	337.174
215.6000	-10.7215	337.487
215.4000	-10.7579	337.807
215.2000	-10.7996	338.131
215.0000	-10.8281	338.458
214.8000	-10.8359	338.784
214.6000	-10.8272	339.116
214.4000	-10.8425	339.453
214.2000	-10.8552	339.797
214.0000	-10.8474	340.145
213.8000	-10.865	340.505
213.6000	-10.8799	340.867
213.4000	-10.882	341.237
213.2000	-10.8937	341.612
213.0000	-10.8889	341.995
212.8000	-10.8936	342.382
212.6000	-10.9084	342.776
212.4000	-10.8846	343.172
212.2000	-10.8984	343.576
212.0000	-10.9296	343.978
211.8000	-10.9377	344.387
211.6000	-10.9179	344.8
211.4000	-10.933	345.221
211.2000	-10.942	345.643
211.0000	-10.9019	346.063
210.8000	-10.8703	346.49
210.6000	-10.8529	346.925
210.4000	-10.8276	347.363
210.2000	-10.8207	347.806
210.0000	-10.8183	348.252
209.8000	-10.8049	348.706
209.6000	-10.8068	349.165
209.4000	-10.7778	349.631
209.2000	-10.7327	350.104
209.0000	-10.7357	350.581
208.8000	-10.73	351.061
208.6000	-10.6843	351.549
208.4000	-10.6955	352.041
208.2000	-10.7043	352.538
208.0000	-10.6841	353.04
207.8000	-10.6458	353.545
207.6000	-10.617	354.055
207.4000	-10.6278	354.571
207.2000	-10.614	355.096
207.0000	-10.5866	355.624
206.8000	-10.5517	356.159
206.6000	-10.4966	356.7
206.4000	-10.4713	357.251
206.2000	-10.4249	357.814
206.0000	-10.4068	358.378
205.8000	-10.3937	358.945
205.6000	-10.3749	359.529
205.4000	-10.3205	360.117
205.2000	-10.2592	360.715
205.0000	-10.2369	361.318
204.8000	-10.2014	361.933
204.6000	-10.1343	362.553
204.4000	-10.0964	363.182
204.2000	-10.0549	363.824
204.0000	-10.0191	364.48
203.8000	-9.98097	365.142
203.6000	-9.95227	365.818
203.4000	-9.92893	366.507
203.2000	-9.89844	367.215
203.0000	-9.82773	367.944
202.8000	-9.80971	368.69
202.6000	-9.80008	369.45
202.4000	-9.8393	370.23
202.2000	-9.86003	371.034
202.0000	-9.82063	371.866
201.8000	-9.78558	372.724
201.6000	-9.74802	373.606
201.4000	-9.70684	374.506
201.2000	-9.69234	375.438
201.0000	-9.64531	376.407
200.8000	-9.596	377.407
200.6000	-9.59827	378.444
200.4000	-9.59121	379.515
200.2000	-9.56042	380.628
200.0000	-9.50142	381.791
199.8000	-9.42063	383.013
199.6000	-9.3286	384.286
199.4000	-9.24374	385.612
199.2000	-9.19705	386.995
199.0000	-9.14674	388.45
198.8000	-9.13892	389.983
198.6000	-9.13472	391.598
198.4000	-9.07925	393.3
198.2000	-9.06151	395.101
198.0000	-9.01068	397.01
197.8000	-8.96259	399.033
197.6000	-8.86143	401.166
197.4000	-8.82049	403.422
197.2000	-8.7913	405.803
197.0000	-8.76891	408.333
196.8000	-8.74722	411.012
196.6000	-8.70933	413.871
196.4000	-8.70029	416.907
196.2000	-8.68526	420.148
196.0000	-8.61565	423.617
195.8000	-8.55234	427.331
195.6000	-8.5825	431.301
195.4000	-8.53127	435.552
195.2000	-8.47077	440.098
195.0000	-8.49078	444.975
