TITLE	20201112_F28V_GDP
DATA TYPE	
ORIGIN	JASCO
OWNER	
DATE	20/11/12
TIME	14:52:58
SPECTROMETER/DATA SYSTEM	JASCO Corp., J-715, Rev. 1.00
RESOLUTION	
DELTAX	-0.2
XUNITS	NANOMETERS
YUNITS	CD[mdeg]
Y2UNITS	HT[V]
FIRSTX	280.0000
LASTX	195.0000
NPOINTS	426
FIRSTY	1.89961
MAXY	20.12528
MINY	-12.20135
XYDATA
280.0000	1.89961	277.169
279.8000	1.88173	277.19
279.6000	1.87529	277.213
279.4000	1.86282	277.248
279.2000	1.87447	277.293
279.0000	1.88351	277.346
278.8000	1.88524	277.409
278.6000	1.88065	277.475
278.4000	1.87763	277.552
278.2000	1.8528	277.635
278.0000	1.85328	277.726
277.8000	1.82753	277.83
277.6000	1.80652	277.946
277.4000	1.81845	278.071
277.2000	1.80997	278.19
277.0000	1.81542	278.309
276.8000	1.79626	278.433
276.6000	1.79211	278.555
276.4000	1.76707	278.676
276.2000	1.76128	278.796
276.0000	1.75767	278.919
275.8000	1.73548	279.043
275.6000	1.71181	279.171
275.4000	1.7008	279.302
275.2000	1.68443	279.432
275.0000	1.70431	279.56
274.8000	1.69992	279.688
274.6000	1.6749	279.814
274.4000	1.656	279.939
274.2000	1.64506	280.061
274.0000	1.64088	280.187
273.8000	1.63672	280.315
273.6000	1.62181	280.445
273.4000	1.62321	280.576
273.2000	1.62562	280.71
273.0000	1.61606	280.842
272.8000	1.64114	280.977
272.6000	1.65064	281.111
272.4000	1.63979	281.244
272.2000	1.6205	281.382
272.0000	1.62453	281.524
271.8000	1.63975	281.669
271.6000	1.64056	281.82
271.4000	1.65086	281.973
271.2000	1.66215	282.125
271.0000	1.66572	282.272
270.8000	1.66543	282.42
270.6000	1.6455	282.564
270.4000	1.66349	282.704
270.2000	1.6661	282.844
270.0000	1.65445	282.984
269.8000	1.64544	283.122
269.6000	1.65063	283.257
269.4000	1.63666	283.384
269.2000	1.60135	283.512
269.0000	1.59302	283.634
268.8000	1.57924	283.757
268.6000	1.53745	283.878
268.4000	1.52595	283.995
268.2000	1.51002	284.114
268.0000	1.50868	284.234
267.8000	1.49682	284.356
267.6000	1.49067	284.476
267.4000	1.47906	284.593
267.2000	1.45664	284.71
267.0000	1.47894	284.83
266.8000	1.45982	284.95
266.6000	1.4606	285.07
266.4000	1.46204	285.193
266.2000	1.46382	285.307
266.0000	1.47629	285.418
265.8000	1.48343	285.531
265.6000	1.47921	285.64
265.4000	1.49197	285.755
265.2000	1.49781	285.863
265.0000	1.50143	285.972
264.8000	1.51055	286.081
264.6000	1.51046	286.187
264.4000	1.51767	286.29
264.2000	1.52024	286.392
264.0000	1.5299	286.492
263.8000	1.53222	286.594
263.6000	1.5367	286.693
263.4000	1.52671	286.8
263.2000	1.53422	286.904
263.0000	1.54056	287.01
262.8000	1.5358	287.117
262.6000	1.51153	287.222
262.4000	1.48906	287.329
262.2000	1.4871	287.437
262.0000	1.48231	287.555
261.8000	1.46858	287.671
261.6000	1.44894	287.79
261.4000	1.42843	287.911
261.2000	1.44342	288.034
261.0000	1.42359	288.159
260.8000	1.42689	288.287
260.6000	1.40757	288.415
260.4000	1.40335	288.545
260.2000	1.39877	288.672
260.0000	1.40456	288.805
259.8000	1.39511	288.937
259.6000	1.41159	289.068
259.4000	1.40763	289.192
259.2000	1.40914	289.319
259.0000	1.41689	289.448
258.8000	1.43431	289.573
258.6000	1.43393	289.702
258.4000	1.42431	289.831
258.2000	1.45632	289.956
258.0000	1.45946	290.081
257.8000	1.47057	290.202
257.6000	1.466	290.331
257.4000	1.4669	290.458
257.2000	1.48539	290.584
257.0000	1.49073	290.712
256.8000	1.47015	290.842
256.6000	1.46232	290.978
256.4000	1.44217	291.112
256.2000	1.45392	291.247
256.0000	1.44265	291.383
255.8000	1.44891	291.516
255.6000	1.43952	291.651
255.4000	1.43463	291.789
255.2000	1.42252	291.929
255.0000	1.40751	292.072
254.8000	1.41893	292.216
254.6000	1.38153	292.355
254.4000	1.36243	292.499
254.2000	1.38412	292.645
254.0000	1.3892	292.789
253.8000	1.37462	292.927
253.6000	1.35329	293.066
253.4000	1.33943	293.206
253.2000	1.34549	293.35
253.0000	1.31606	293.493
252.8000	1.30478	293.632
252.6000	1.30399	293.767
252.4000	1.31021	293.903
252.2000	1.30449	294.038
252.0000	1.31577	294.177
251.8000	1.31616	294.311
251.6000	1.30041	294.445
251.4000	1.28475	294.576
251.2000	1.28109	294.71
251.0000	1.30989	294.84
250.8000	1.31686	294.972
250.6000	1.32707	295.104
250.4000	1.33487	295.235
250.2000	1.35864	295.366
250.0000	1.34365	295.501
249.8000	1.32897	295.636
249.6000	1.32018	295.77
249.4000	1.30874	295.903
249.2000	1.27944	296.038
249.0000	1.27772	296.176
248.8000	1.25917	296.318
248.6000	1.24669	296.465
248.4000	1.23977	296.615
248.2000	1.20699	296.769
248.0000	1.20317	296.927
247.8000	1.19183	297.087
247.6000	1.17484	297.249
247.4000	1.17037	297.411
247.2000	1.15801	297.575
247.0000	1.13638	297.743
246.8000	1.11588	297.913
246.6000	1.1314	298.088
246.4000	1.12891	298.261
246.2000	1.10473	298.434
246.0000	1.12139	298.612
245.8000	1.08287	298.792
245.6000	1.06811	298.974
245.4000	1.03154	299.155
245.2000	1.00196	299.339
245.0000	0.95636	299.525
244.8000	0.910127	299.713
244.6000	0.857478	299.91
244.4000	0.820774	300.109
244.2000	0.770999	300.309
244.0000	0.742827	300.517
243.8000	0.720242	300.733
243.6000	0.695637	300.953
243.4000	0.630382	301.174
243.2000	0.572724	301.398
243.0000	0.531353	301.631
242.8000	0.463864	301.866
242.6000	0.414756	302.106
242.4000	0.370728	302.352
242.2000	0.344496	302.603
242.0000	0.281269	302.856
241.8000	0.209848	303.115
241.6000	0.165174	303.378
241.4000	0.123007	303.648
241.2000	0.0347624	303.919
241.0000	-0.0601478	304.197
240.8000	-0.128417	304.483
240.6000	-0.202739	304.773
240.4000	-0.2896	305.067
240.2000	-0.350189	305.368
240.0000	-0.435495	305.678
239.8000	-0.550986	305.995
239.6000	-0.644108	306.318
239.4000	-0.724372	306.645
239.2000	-0.810453	306.979
239.0000	-0.883321	307.324
238.8000	-0.972961	307.677
238.6000	-1.06727	308.03
238.4000	-1.14709	308.39
238.2000	-1.26671	308.752
238.0000	-1.37997	309.127
237.8000	-1.4837	309.508
237.6000	-1.61151	309.895
237.4000	-1.73725	310.291
237.2000	-1.83414	310.694
237.0000	-1.93411	311.102
236.8000	-2.03967	311.517
236.6000	-2.17625	311.94
236.4000	-2.29087	312.371
236.2000	-2.43589	312.804
236.0000	-2.58804	313.248
235.8000	-2.74805	313.702
235.6000	-2.89569	314.163
235.4000	-3.05502	314.623
235.2000	-3.23269	315.09
235.0000	-3.34637	315.563
234.8000	-3.47587	316.04
234.6000	-3.5861	316.518
234.4000	-3.74664	316.996
234.2000	-3.94088	317.482
234.0000	-4.11804	317.974
233.8000	-4.26982	318.477
233.6000	-4.45119	318.98
233.4000	-4.64235	319.486
233.2000	-4.81237	319.991
233.0000	-4.95765	320.502
232.8000	-5.1062	321.016
232.6000	-5.22473	321.536
232.4000	-5.37917	322.053
232.2000	-5.56772	322.576
232.0000	-5.76721	323.099
231.8000	-5.93054	323.624
231.6000	-6.08366	324.149
231.4000	-6.23591	324.675
231.2000	-6.40025	325.203
231.0000	-6.5747	325.727
230.8000	-6.69458	326.253
230.6000	-6.79384	326.784
230.4000	-6.95129	327.318
230.2000	-7.13429	327.851
230.0000	-7.28509	328.384
229.8000	-7.4306	328.919
229.6000	-7.5619	329.453
229.4000	-7.68123	329.988
229.2000	-7.81779	330.528
229.0000	-8.00232	331.065
228.8000	-8.11367	331.604
228.6000	-8.27311	332.136
228.4000	-8.40488	332.664
228.2000	-8.53345	333.193
228.0000	-8.66233	333.715
227.8000	-8.80546	334.236
227.6000	-8.95171	334.752
227.4000	-9.06361	335.269
227.2000	-9.16861	335.787
227.0000	-9.27475	336.305
226.8000	-9.37618	336.825
226.6000	-9.4621	337.339
226.4000	-9.5414	337.855
226.2000	-9.60643	338.375
226.0000	-9.68923	338.899
225.8000	-9.76099	339.425
225.6000	-9.88005	339.955
225.4000	-9.94271	340.49
225.2000	-10.0075	341.031
225.0000	-10.0496	341.572
224.8000	-10.0938	342.112
224.6000	-10.1591	342.65
224.4000	-10.2677	343.193
224.2000	-10.3467	343.739
224.0000	-10.438	344.288
223.8000	-10.5295	344.838
223.6000	-10.584	345.388
223.4000	-10.6472	345.933
223.2000	-10.6971	346.481
223.0000	-10.7449	347.027
222.8000	-10.7671	347.573
222.6000	-10.8309	348.12
222.4000	-10.9076	348.668
222.2000	-10.9247	349.217
222.0000	-10.9434	349.772
221.8000	-10.9752	350.327
221.6000	-10.984	350.88
221.4000	-10.9922	351.435
221.2000	-11.0336	351.99
221.0000	-11.0296	352.547
220.8000	-11.0706	353.106
220.6000	-11.0803	353.667
220.4000	-11.062	354.229
220.2000	-11.0113	354.799
220.0000	-10.9963	355.371
219.8000	-10.9951	355.941
219.6000	-10.9962	356.518
219.4000	-10.9932	357.099
219.2000	-11.0062	357.69
219.0000	-11.0296	358.29
218.8000	-11.0269	358.89
218.6000	-11.0171	359.492
218.4000	-10.9682	360.106
218.2000	-10.965	360.728
218.0000	-10.9861	361.354
217.8000	-10.9899	361.991
217.6000	-11.0557	362.633
217.4000	-11.0687	363.277
217.2000	-11.0761	363.935
217.0000	-11.066	364.599
216.8000	-11.0555	365.27
216.6000	-11.0636	365.952
216.4000	-11.0218	366.635
216.2000	-10.9722	367.328
216.0000	-10.9669	368.037
215.8000	-11.0394	368.75
215.6000	-11.0747	369.475
215.4000	-11.0637	370.217
215.2000	-11.0395	370.978
215.0000	-11.0017	371.752
214.8000	-11.0403	372.545
214.6000	-11.0812	373.357
214.4000	-11.1218	374.18
214.2000	-11.1718	375.025
214.0000	-11.2291	375.895
213.8000	-11.2395	376.785
213.6000	-11.2997	377.693
213.4000	-11.3757	378.622
213.2000	-11.332	379.574
213.0000	-11.3435	380.552
212.8000	-11.3731	381.551
212.6000	-11.447	382.566
212.4000	-11.5231	383.607
212.2000	-11.5152	384.669
212.0000	-11.554	385.753
211.8000	-11.5903	386.859
211.6000	-11.5864	387.994
211.4000	-11.605	389.161
211.2000	-11.6525	390.348
211.0000	-11.7536	391.566
210.8000	-11.799	392.814
210.6000	-11.8399	394.091
210.4000	-11.9199	395.403
210.2000	-12.0175	396.749
210.0000	-12.054	398.135
209.8000	-12.1048	399.556
209.6000	-12.1314	401.01
209.4000	-12.1691	402.513
209.2000	-12.2014	404.051
209.0000	-12.18	405.625
208.8000	-12.1676	407.232
208.6000	-12.1269	408.875
208.4000	-11.9839	410.562
208.2000	-11.8675	412.285
208.0000	-11.7966	414.049
207.8000	-11.7617	415.864
207.6000	-11.5813	417.718
207.4000	-11.3603	419.612
207.2000	-11.1473	421.552
207.0000	-10.9594	423.543
206.8000	-10.8076	425.577
206.6000	-10.6245	427.656
206.4000	-10.3828	429.793
206.2000	-10.1354	431.976
206.0000	-9.85263	434.213
205.8000	-9.59917	436.499
205.6000	-9.34959	438.839
205.4000	-9.00973	441.233
205.2000	-8.64896	443.677
205.0000	-8.26902	446.164
204.8000	-7.79698	448.699
204.6000	-7.39226	451.29
204.4000	-7.05313	453.938
204.2000	-6.58116	456.63
204.0000	-6.19173	459.383
203.8000	-5.63107	462.189
203.6000	-5.13888	465.054
203.4000	-4.77711	467.978
203.2000	-4.20133	470.959
203.0000	-3.70137	474.008
202.8000	-3.26879	477.115
202.6000	-2.7298	480.28
202.4000	-2.08624	483.518
202.2000	-1.36526	486.82
202.0000	-0.8311	490.188
201.8000	-0.236623	493.63
201.6000	0.522233	497.143
201.4000	1.26874	500.738
201.2000	1.99994	504.403
201.0000	2.53376	508.154
200.8000	3.23766	511.996
200.6000	4.10908	515.926
200.4000	4.97924	519.947
200.2000	5.66193	524.069
200.0000	6.35758	528.302
199.8000	7.06166	532.657
199.6000	7.71058	537.127
199.4000	8.35036	541.723
199.2000	9.25937	546.439
199.0000	9.93503	551.283
198.8000	10.5919	556.267
198.6000	11.3176	561.416
198.4000	12.1941	566.714
198.2000	13.165	572.172
198.0000	13.9115	577.8
197.8000	14.505	583.608
197.6000	15.1237	589.586
197.4000	16.2102	595.74
197.2000	16.8563	602.072
197.0000	17.155	608.612
196.8000	17.8562	615.376
196.6000	18.4994	622.393
196.4000	19.0769	629.658
196.2000	19.6475	637.195
196.0000	19.6247	645.036
195.8000	19.8535	653.2
195.6000	19.7276	661.709
195.4000	19.8669	670.562
195.2000	19.6939	679.784
195.0000	20.1253	689.399
