TITLE	20201112_F28Y_GDP
DATA TYPE	
ORIGIN	JASCO
OWNER	
DATE	20/11/12
TIME	15:40:44
SPECTROMETER/DATA SYSTEM	JASCO Corp., J-715, Rev. 1.00
RESOLUTION	
DELTAX	-0.2
XUNITS	NANOMETERS
YUNITS	CD[mdeg]
Y2UNITS	HT[V]
FIRSTX	280.0000
LASTX	198.0000
NPOINTS	411
FIRSTY	-6.22700
MAXY	2.55762
MINY	-31.56601
XYDATA
280.0000	-6.227	278.305
279.8000	-6.22335	278.323
279.6000	-6.21422	278.351
279.4000	-6.20102	278.382
279.2000	-6.18956	278.427
279.0000	-6.19237	278.48
278.8000	-6.18786	278.539
278.6000	-6.18516	278.605
278.4000	-6.18091	278.684
278.2000	-6.1858	278.77
278.0000	-6.18674	278.864
277.8000	-6.17187	278.963
277.6000	-6.15727	279.073
277.4000	-6.13442	279.197
277.2000	-6.12307	279.317
277.0000	-6.10948	279.43
276.8000	-6.11191	279.548
276.6000	-6.12039	279.666
276.4000	-6.11656	279.788
276.2000	-6.12026	279.904
276.0000	-6.122	280.024
275.8000	-6.10311	280.145
275.6000	-6.10069	280.264
275.4000	-6.07913	280.39
275.2000	-6.05295	280.512
275.0000	-6.05647	280.637
274.8000	-6.05233	280.759
274.6000	-6.05591	280.88
274.4000	-6.05142	281.001
274.2000	-6.03076	281.125
274.0000	-6.00937	281.248
273.8000	-5.98702	281.367
273.6000	-5.97168	281.486
273.4000	-5.94816	281.61
273.2000	-5.94099	281.733
273.0000	-5.93088	281.856
272.8000	-5.91182	281.978
272.6000	-5.90561	282.104
272.4000	-5.88435	282.226
272.2000	-5.85228	282.355
272.0000	-5.82835	282.487
271.8000	-5.8005	282.62
271.6000	-5.78357	282.756
271.4000	-5.77245	282.886
271.2000	-5.75549	283.024
271.0000	-5.74758	283.164
270.8000	-5.7205	283.3
270.6000	-5.70019	283.436
270.4000	-5.67233	283.573
270.2000	-5.6553	283.706
270.0000	-5.64004	283.838
269.8000	-5.61161	283.965
269.6000	-5.60936	284.092
269.4000	-5.60361	284.216
269.2000	-5.59697	284.336
269.0000	-5.59719	284.453
268.8000	-5.57091	284.568
268.6000	-5.5354	284.683
268.4000	-5.51165	284.794
268.2000	-5.49994	284.903
268.0000	-5.4992	285.017
267.8000	-5.48858	285.125
267.6000	-5.48798	285.234
267.4000	-5.46735	285.344
267.2000	-5.46389	285.457
267.0000	-5.46462	285.569
266.8000	-5.4495	285.677
266.6000	-5.42236	285.783
266.4000	-5.40302	285.891
266.2000	-5.39541	286
266.0000	-5.40565	286.108
265.8000	-5.42065	286.217
265.6000	-5.42665	286.324
265.4000	-5.42095	286.431
265.2000	-5.40664	286.531
265.0000	-5.39814	286.635
264.8000	-5.38914	286.737
264.6000	-5.39532	286.834
264.4000	-5.37221	286.929
264.2000	-5.36102	287.028
264.0000	-5.35704	287.123
263.8000	-5.3618	287.221
263.6000	-5.36456	287.317
263.4000	-5.36589	287.417
263.2000	-5.37292	287.511
263.0000	-5.37005	287.609
262.8000	-5.36083	287.706
262.6000	-5.36225	287.808
262.4000	-5.37252	287.913
262.2000	-5.38229	288.018
262.0000	-5.38946	288.131
261.8000	-5.40036	288.245
261.6000	-5.41271	288.36
261.4000	-5.41529	288.478
261.2000	-5.42986	288.596
261.0000	-5.43516	288.716
260.8000	-5.43491	288.835
260.6000	-5.43149	288.958
260.4000	-5.43934	289.084
260.2000	-5.45052	289.215
260.0000	-5.46588	289.343
259.8000	-5.45518	289.472
259.6000	-5.466	289.604
259.4000	-5.46733	289.727
259.2000	-5.46869	289.851
259.0000	-5.48704	289.973
258.8000	-5.49752	290.09
258.6000	-5.53155	290.211
258.4000	-5.55438	290.335
258.2000	-5.57957	290.458
258.0000	-5.59924	290.583
257.8000	-5.59879	290.704
257.6000	-5.62159	290.825
257.4000	-5.62929	290.944
257.2000	-5.65139	291.068
257.0000	-5.68454	291.188
256.8000	-5.69593	291.308
256.6000	-5.71018	291.434
256.4000	-5.74134	291.564
256.2000	-5.7628	291.693
256.0000	-5.79583	291.824
255.8000	-5.81559	291.953
255.6000	-5.85654	292.087
255.4000	-5.88383	292.222
255.2000	-5.89794	292.356
255.0000	-5.94219	292.491
254.8000	-5.95549	292.632
254.6000	-5.98895	292.768
254.4000	-6.02382	292.907
254.2000	-6.06072	293.049
254.0000	-6.07396	293.188
253.8000	-6.08935	293.325
253.6000	-6.102	293.464
253.4000	-6.12231	293.607
253.2000	-6.14063	293.752
253.0000	-6.14042	293.892
252.8000	-6.16369	294.03
252.6000	-6.18462	294.167
252.4000	-6.21977	294.306
252.2000	-6.22635	294.44
252.0000	-6.25095	294.575
251.8000	-6.26961	294.712
251.6000	-6.26107	294.846
251.4000	-6.27414	294.982
251.2000	-6.3211	295.118
251.0000	-6.34349	295.25
250.8000	-6.37784	295.379
250.6000	-6.39735	295.51
250.4000	-6.41644	295.637
250.2000	-6.42994	295.767
250.0000	-6.44986	295.9
249.8000	-6.4696	296.03
249.6000	-6.49249	296.162
249.4000	-6.53521	296.295
249.2000	-6.5491	296.427
249.0000	-6.58422	296.56
248.8000	-6.61898	296.7
248.6000	-6.64948	296.847
248.4000	-6.68478	296.997
248.2000	-6.70559	297.15
248.0000	-6.72216	297.304
247.8000	-6.74806	297.465
247.6000	-6.78688	297.624
247.4000	-6.80148	297.79
247.2000	-6.80771	297.957
247.0000	-6.83408	298.128
246.8000	-6.84307	298.302
246.6000	-6.87539	298.476
246.4000	-6.90434	298.655
246.2000	-6.93676	298.836
246.0000	-6.96345	299.013
245.8000	-6.98675	299.193
245.6000	-7.01301	299.382
245.4000	-7.06392	299.575
245.2000	-7.11867	299.768
245.0000	-7.13341	299.964
244.8000	-7.17628	300.164
244.6000	-7.23892	300.37
244.4000	-7.2969	300.581
244.2000	-7.36583	300.791
244.0000	-7.43059	301.011
243.8000	-7.46885	301.244
243.6000	-7.53973	301.481
243.4000	-7.60977	301.721
243.2000	-7.67839	301.969
243.0000	-7.73162	302.217
242.8000	-7.82278	302.474
242.6000	-7.88616	302.735
242.4000	-7.95787	303.006
242.2000	-8.0452	303.282
242.0000	-8.13109	303.563
241.8000	-8.23386	303.848
241.6000	-8.31549	304.144
241.4000	-8.40387	304.448
241.2000	-8.49123	304.759
241.0000	-8.59182	305.073
240.8000	-8.68723	305.393
240.6000	-8.7887	305.723
240.4000	-8.91798	306.061
240.2000	-9.03918	306.411
240.0000	-9.13308	306.762
239.8000	-9.25613	307.123
239.6000	-9.39111	307.498
239.4000	-9.55158	307.881
239.2000	-9.69877	308.272
239.0000	-9.8642	308.672
238.8000	-10.0295	309.081
238.6000	-10.1916	309.498
238.4000	-10.3757	309.929
238.2000	-10.5315	310.37
238.0000	-10.704	310.818
237.8000	-10.8746	311.281
237.6000	-11.0777	311.754
237.4000	-11.2886	312.234
237.2000	-11.508	312.727
237.0000	-11.6935	313.232
236.8000	-11.9166	313.745
236.6000	-12.1169	314.27
236.4000	-12.3141	314.807
236.2000	-12.5141	315.354
236.0000	-12.7378	315.912
235.8000	-12.9556	316.479
235.6000	-13.1994	317.051
235.4000	-13.4335	317.635
235.2000	-13.6866	318.228
235.0000	-13.9442	318.828
234.8000	-14.1563	319.44
234.6000	-14.4045	320.067
234.4000	-14.6583	320.699
234.2000	-14.8945	321.34
234.0000	-15.1189	321.994
233.8000	-15.3668	322.653
233.6000	-15.6428	323.32
233.4000	-15.8764	323.994
233.2000	-16.1243	324.673
233.0000	-16.3817	325.362
232.8000	-16.6065	326.056
232.6000	-16.8826	326.748
232.4000	-17.1088	327.444
232.2000	-17.3624	328.14
232.0000	-17.6222	328.836
231.8000	-17.8482	329.53
231.6000	-18.1001	330.219
231.4000	-18.3387	330.913
231.2000	-18.6121	331.606
231.0000	-18.8626	332.291
230.8000	-19.1146	332.979
230.6000	-19.3395	333.666
230.4000	-19.5674	334.348
230.2000	-19.8169	335.023
230.0000	-20.0479	335.699
229.8000	-20.2737	336.373
229.6000	-20.5127	337.045
229.4000	-20.7617	337.716
229.2000	-21.0086	338.378
229.0000	-21.2416	339.035
228.8000	-21.478	339.696
228.6000	-21.7112	340.348
228.4000	-21.9391	340.995
228.2000	-22.1599	341.636
228.0000	-22.3478	342.273
227.8000	-22.5851	342.903
227.6000	-22.7766	343.526
227.4000	-22.9887	344.147
227.2000	-23.1694	344.769
227.0000	-23.3747	345.384
226.8000	-23.5435	345.997
226.6000	-23.7011	346.607
226.4000	-23.9103	347.218
226.2000	-24.0587	347.828
226.0000	-24.2112	348.43
225.8000	-24.3566	349.036
225.6000	-24.5021	349.645
225.4000	-24.646	350.254
225.2000	-24.7764	350.861
225.0000	-24.9242	351.467
224.8000	-25.065	352.076
224.6000	-25.2005	352.681
224.4000	-25.3499	353.291
224.2000	-25.4726	353.9
224.0000	-25.5946	354.514
223.8000	-25.6828	355.126
223.6000	-25.7692	355.736
223.4000	-25.8856	356.35
223.2000	-25.982	356.964
223.0000	-26.0665	357.577
222.8000	-26.1367	358.188
222.6000	-26.2242	358.806
222.4000	-26.3313	359.425
222.2000	-26.3989	360.052
222.0000	-26.4818	360.684
221.8000	-26.5515	361.312
221.6000	-26.6111	361.939
221.4000	-26.6668	362.573
221.2000	-26.688	363.208
221.0000	-26.7161	363.842
220.8000	-26.7783	364.476
220.6000	-26.7632	365.112
220.4000	-26.8028	365.753
220.2000	-26.8329	366.398
220.0000	-26.885	367.047
219.8000	-26.9238	367.7
219.6000	-26.975	368.353
219.4000	-27.0009	369.015
219.2000	-27.0447	369.689
219.0000	-27.0667	370.371
218.8000	-27.1177	371.063
218.6000	-27.1876	371.765
218.4000	-27.2893	372.474
218.2000	-27.3441	373.2
218.0000	-27.3919	373.939
217.8000	-27.4493	374.689
217.6000	-27.5163	375.446
217.4000	-27.5584	376.221
217.2000	-27.6	377.003
217.0000	-27.6464	377.802
216.8000	-27.6818	378.614
216.6000	-27.7514	379.434
216.4000	-27.7671	380.265
216.2000	-27.8061	381.107
216.0000	-27.8285	381.962
215.8000	-27.8529	382.833
215.6000	-27.8772	383.721
215.4000	-27.9435	384.629
215.2000	-28.0154	385.559
215.0000	-28.0962	386.512
214.8000	-28.1492	387.485
214.6000	-28.2475	388.483
214.4000	-28.3318	389.511
214.2000	-28.3913	390.56
214.0000	-28.4422	391.638
213.8000	-28.5038	392.745
213.6000	-28.5924	393.89
213.4000	-28.651	395.067
213.2000	-28.7437	396.276
213.0000	-28.8623	397.512
212.8000	-29.0016	398.791
212.6000	-29.0733	400.095
212.4000	-29.1846	401.429
212.2000	-29.3262	402.805
212.0000	-29.4114	404.208
211.8000	-29.5235	405.646
211.6000	-29.6274	407.119
211.4000	-29.8241	408.631
211.2000	-30.0163	410.187
211.0000	-30.1485	411.784
210.8000	-30.3127	413.425
210.6000	-30.491	415.109
210.4000	-30.6676	416.846
210.2000	-30.7707	418.632
210.0000	-30.8736	420.462
209.8000	-31.0309	422.355
209.6000	-31.0974	424.305
209.4000	-31.253	426.314
209.2000	-31.3489	428.387
209.0000	-31.4561	430.523
208.8000	-31.5609	432.717
208.6000	-31.566	434.973
208.4000	-31.5635	437.29
208.2000	-31.5459	439.672
208.0000	-31.4038	442.124
207.8000	-31.3071	444.642
207.6000	-31.2013	447.231
207.4000	-31.1267	449.905
207.2000	-30.9997	452.651
207.0000	-30.8543	455.472
206.8000	-30.681	458.365
206.6000	-30.4325	461.34
206.4000	-30.2624	464.398
206.2000	-29.9323	467.53
206.0000	-29.5419	470.749
205.8000	-29.2059	474.053
205.6000	-28.8488	477.443
205.4000	-28.6359	480.917
205.2000	-28.2396	484.46
205.0000	-27.7334	488.088
204.8000	-27.2611	491.806
204.6000	-26.7083	495.614
204.4000	-26.1342	499.503
204.2000	-25.5903	503.481
204.0000	-25.1221	507.558
203.8000	-24.4931	511.722
203.6000	-23.881	515.983
203.4000	-23.3341	520.345
203.2000	-22.7156	524.805
203.0000	-22.1203	529.364
202.8000	-21.3687	534.027
202.6000	-20.6537	538.797
202.4000	-19.9172	543.686
202.2000	-19.3801	548.671
202.0000	-18.869	553.752
201.8000	-18.1945	558.946
201.6000	-17.4322	564.268
201.4000	-16.4799	569.696
201.2000	-15.5741	575.233
201.0000	-14.68	580.898
200.8000	-13.5381	586.699
200.6000	-12.5132	592.635
200.4000	-11.3498	598.712
200.2000	-10.3982	604.933
200.0000	-9.45118	611.319
199.8000	-8.09263	617.866
199.6000	-7.10253	624.557
199.4000	-5.96996	631.417
199.2000	-4.2305	638.451
199.0000	-3.13454	645.661
198.8000	-1.93322	653.063
198.6000	-0.530759	660.653
198.4000	0.576546	668.451
198.2000	1.65072	676.45
198.0000	2.55762	684.653
