TITLE	20201112_F28V_GDP
DATA TYPE	
ORIGIN	JASCO
OWNER	
DATE	20/11/12
TIME	14:52:58
SPECTROMETER/DATA SYSTEM	JASCO Corp., J-715, Rev. 1.00
RESOLUTION	
DELTAX	-0.2
XUNITS	NANOMETERS
YUNITS	CD[mdeg]
Y2UNITS	HT[V]
FIRSTX	280.0000
LASTX	195.0000
NPOINTS	426
FIRSTY	-5.07495
MAXY	11.63451
MINY	-22.94692
XYDATA
280.0000	-5.07495	277.169
279.8000	-5.08676	277.19
279.6000	-5.08438	277.213
279.4000	-5.07885	277.248
279.2000	-5.07376	277.293
279.0000	-5.06222	277.346
278.8000	-5.05616	277.409
278.6000	-5.0465	277.475
278.4000	-5.03422	277.552
278.2000	-5.05287	277.635
278.0000	-5.04482	277.726
277.8000	-5.05438	277.83
277.6000	-5.06009	277.946
277.4000	-5.03487	278.071
277.2000	-5.03402	278.19
277.0000	-5.01217	278.309
276.8000	-5.01036	278.433
276.6000	-4.99309	278.555
276.4000	-4.99676	278.676
276.2000	-4.98259	278.796
276.0000	-4.96824	278.919
275.8000	-4.97122	279.043
275.6000	-4.97323	279.171
275.4000	-4.96124	279.302
275.2000	-4.95475	279.432
275.0000	-4.91145	279.56
274.8000	-4.89964	279.688
274.6000	-4.89877	279.814
274.4000	-4.88281	279.939
274.2000	-4.87282	280.061
274.0000	-4.86125	280.187
273.8000	-4.84315	280.315
273.6000	-4.83892	280.445
273.4000	-4.8244	280.576
273.2000	-4.81592	280.71
273.0000	-4.79967	280.842
272.8000	-4.76427	280.977
272.6000	-4.74016	281.111
272.4000	-4.71504	281.244
272.2000	-4.7113	281.382
272.0000	-4.68739	281.524
271.8000	-4.66618	281.669
271.6000	-4.65972	281.82
271.4000	-4.64099	281.973
271.2000	-4.61399	282.125
271.0000	-4.59606	282.272
270.8000	-4.58055	282.42
270.6000	-4.58018	282.564
270.4000	-4.55187	282.704
270.2000	-4.52679	282.844
270.0000	-4.51378	282.984
269.8000	-4.50055	283.122
269.6000	-4.4831	283.257
269.4000	-4.48412	283.384
269.2000	-4.48953	283.512
269.0000	-4.47542	283.634
268.8000	-4.4695	283.757
268.6000	-4.4653	283.878
268.4000	-4.46325	283.995
268.2000	-4.4538	284.114
268.0000	-4.43787	284.234
267.8000	-4.42821	284.356
267.6000	-4.41115	284.476
267.4000	-4.40135	284.593
267.2000	-4.39772	284.71
267.0000	-4.38386	284.83
266.8000	-4.38297	284.95
266.6000	-4.36519	285.07
266.4000	-4.35	285.193
266.2000	-4.32281	285.307
266.0000	-4.29974	285.418
265.8000	-4.28931	285.531
265.6000	-4.27738	285.64
265.4000	-4.26395	285.755
265.2000	-4.2653	285.863
265.0000	-4.25373	285.972
264.8000	-4.24257	286.081
264.6000	-4.23663	286.187
264.4000	-4.21854	286.29
264.2000	-4.20504	286.392
264.0000	-4.20196	286.492
263.8000	-4.20236	286.594
263.6000	-4.20732	286.693
263.4000	-4.21933	286.8
263.2000	-4.21944	286.904
263.0000	-4.22645	287.01
262.8000	-4.23232	287.117
262.6000	-4.24896	287.222
262.4000	-4.26746	287.329
262.2000	-4.27894	287.437
262.0000	-4.29032	287.555
261.8000	-4.30684	287.671
261.6000	-4.32853	287.79
261.4000	-4.35244	287.911
261.2000	-4.34744	288.034
261.0000	-4.37241	288.159
260.8000	-4.37696	288.287
260.6000	-4.40386	288.415
260.4000	-4.42098	288.545
260.2000	-4.43752	288.672
260.0000	-4.44691	288.805
259.8000	-4.45472	288.937
259.6000	-4.45312	289.068
259.4000	-4.48103	289.192
259.2000	-4.50712	289.319
259.0000	-4.53143	289.448
258.8000	-4.54162	289.573
258.6000	-4.56549	289.702
258.4000	-4.58296	289.831
258.2000	-4.5893	289.956
258.0000	-4.60779	290.081
257.8000	-4.63145	290.202
257.6000	-4.64883	290.331
257.4000	-4.67525	290.458
257.2000	-4.67953	290.584
257.0000	-4.7024	290.712
256.8000	-4.73514	290.842
256.6000	-4.75341	290.978
256.4000	-4.78599	291.112
256.2000	-4.79835	291.247
256.0000	-4.8177	291.383
255.8000	-4.83935	291.516
255.6000	-4.85941	291.651
255.4000	-4.87392	291.789
255.2000	-4.89993	291.929
255.0000	-4.93346	292.072
254.8000	-4.94367	292.216
254.6000	-4.97372	292.355
254.4000	-4.99897	292.499
254.2000	-5.01299	292.645
254.0000	-5.02505	292.789
253.8000	-5.04816	292.927
253.6000	-5.07569	293.066
253.4000	-5.11641	293.206
253.2000	-5.13374	293.35
253.0000	-5.16869	293.493
252.8000	-5.20262	293.632
252.6000	-5.22583	293.767
252.4000	-5.22452	293.903
252.2000	-5.24711	294.038
252.0000	-5.26222	294.177
251.8000	-5.28339	294.311
251.6000	-5.31649	294.445
251.4000	-5.34303	294.576
251.2000	-5.36704	294.71
251.0000	-5.36788	294.84
250.8000	-5.36918	294.972
250.6000	-5.36905	295.104
250.4000	-5.3813	295.235
250.2000	-5.37466	295.366
250.0000	-5.39403	295.501
249.8000	-5.40905	295.636
249.6000	-5.42849	295.77
249.4000	-5.44027	295.903
249.2000	-5.47811	296.038
249.0000	-5.48707	296.176
248.8000	-5.50495	296.318
248.6000	-5.53189	296.465
248.4000	-5.55332	296.615
248.2000	-5.58517	296.769
248.0000	-5.59519	296.927
247.8000	-5.6204	297.087
247.6000	-5.63455	297.249
247.4000	-5.65775	297.411
247.2000	-5.68394	297.575
247.0000	-5.70496	297.743
246.8000	-5.73198	297.913
246.6000	-5.75087	298.088
246.4000	-5.76481	298.261
246.2000	-5.80084	298.434
246.0000	-5.80784	298.612
245.8000	-5.83567	298.792
245.6000	-5.862	298.974
245.4000	-5.91661	299.155
245.2000	-5.93844	299.339
245.0000	-5.99113	299.525
244.8000	-6.0312	299.713
244.6000	-6.07267	299.91
244.4000	-6.11687	300.109
244.2000	-6.17407	300.309
244.0000	-6.21343	300.517
243.8000	-6.2394	300.733
243.6000	-6.27678	300.953
243.4000	-6.34137	301.174
243.2000	-6.38589	301.398
243.0000	-6.42921	301.631
242.8000	-6.48405	301.866
242.6000	-6.52807	302.106
242.4000	-6.58933	302.352
242.2000	-6.62665	302.603
242.0000	-6.7003	302.856
241.8000	-6.77049	303.115
241.6000	-6.82373	303.378
241.4000	-6.87357	303.648
241.2000	-6.9522	303.919
241.0000	-7.04434	304.197
240.8000	-7.12238	304.483
240.6000	-7.20622	304.773
240.4000	-7.30059	305.067
240.2000	-7.38418	305.368
240.0000	-7.4828	305.678
239.8000	-7.59293	305.995
239.6000	-7.68651	306.318
239.4000	-7.79028	306.645
239.2000	-7.88997	306.979
239.0000	-7.99556	307.324
238.8000	-8.11566	307.677
238.6000	-8.22348	308.03
238.4000	-8.34378	308.39
238.2000	-8.4778	308.752
238.0000	-8.62318	309.127
237.8000	-8.76047	309.508
237.6000	-8.91859	309.895
237.4000	-9.04319	310.291
237.2000	-9.1706	310.694
237.0000	-9.32177	311.102
236.8000	-9.46483	311.517
236.6000	-9.62333	311.94
236.4000	-9.76593	312.371
236.2000	-9.9216	312.804
236.0000	-10.1076	313.248
235.8000	-10.2781	313.702
235.6000	-10.4505	314.163
235.4000	-10.6324	314.623
235.2000	-10.8196	315.09
235.0000	-10.9816	315.563
234.8000	-11.1566	316.04
234.6000	-11.3545	316.518
234.4000	-11.5541	316.996
234.2000	-11.7624	317.482
234.0000	-11.9589	317.974
233.8000	-12.1718	318.477
233.6000	-12.3907	318.98
233.4000	-12.6097	319.486
233.2000	-12.8011	319.991
233.0000	-12.997	320.502
232.8000	-13.1916	321.016
232.6000	-13.365	321.536
232.4000	-13.5551	322.053
232.2000	-13.7515	322.576
232.0000	-13.9599	323.099
231.8000	-14.1443	323.624
231.6000	-14.3309	324.149
231.4000	-14.5311	324.675
231.2000	-14.7311	325.203
231.0000	-14.9184	325.727
230.8000	-15.0957	326.253
230.6000	-15.2659	326.784
230.4000	-15.4608	327.318
230.2000	-15.6744	327.851
230.0000	-15.8655	328.384
229.8000	-16.0445	328.919
229.6000	-16.2157	329.453
229.4000	-16.393	329.988
229.2000	-16.5814	330.528
229.0000	-16.7788	331.065
228.8000	-16.9359	331.604
228.6000	-17.1328	332.136
228.4000	-17.3028	332.664
228.2000	-17.4489	333.193
228.0000	-17.6076	333.715
227.8000	-17.7912	334.236
227.6000	-17.973	334.752
227.4000	-18.1193	335.269
227.2000	-18.264	335.787
227.0000	-18.4159	336.305
226.8000	-18.5648	336.825
226.6000	-18.6941	337.339
226.4000	-18.8213	337.855
226.2000	-18.9454	338.375
226.0000	-19.0666	338.899
225.8000	-19.1793	339.425
225.6000	-19.3371	339.955
225.4000	-19.4394	340.49
225.2000	-19.5663	341.031
225.0000	-19.6323	341.572
224.8000	-19.7097	342.112
224.6000	-19.811	342.65
224.4000	-19.934	343.193
224.2000	-20.0619	343.739
224.0000	-20.1392	344.288
223.8000	-20.2612	344.838
223.6000	-20.3511	345.388
223.4000	-20.4326	345.933
223.2000	-20.5057	346.481
223.0000	-20.5823	347.027
222.8000	-20.6331	347.573
222.6000	-20.7013	348.12
222.4000	-20.7719	348.668
222.2000	-20.8388	349.217
222.0000	-20.8975	349.772
221.8000	-20.9587	350.327
221.6000	-20.9975	350.88
221.4000	-21.016	351.435
221.2000	-21.0948	351.99
221.0000	-21.1138	352.547
220.8000	-21.1715	353.106
220.6000	-21.2042	353.667
220.4000	-21.2242	354.229
220.2000	-21.2249	354.799
220.0000	-21.2757	355.371
219.8000	-21.3166	355.941
219.6000	-21.3303	356.518
219.4000	-21.3508	357.099
219.2000	-21.3843	357.69
219.0000	-21.4372	358.29
218.8000	-21.4535	358.89
218.6000	-21.4706	359.492
218.4000	-21.4557	360.106
218.2000	-21.4539	360.728
218.0000	-21.4848	361.354
217.8000	-21.5101	361.991
217.6000	-21.5619	362.633
217.4000	-21.5939	363.277
217.2000	-21.6102	363.935
217.0000	-21.627	364.599
216.8000	-21.6415	365.27
216.6000	-21.6608	365.952
216.4000	-21.6351	366.635
216.2000	-21.6355	367.328
216.0000	-21.6644	368.037
215.8000	-21.7423	368.75
215.6000	-21.7962	369.475
215.4000	-21.8216	370.217
215.2000	-21.8391	370.978
215.0000	-21.8298	371.752
214.8000	-21.8762	372.545
214.6000	-21.9084	373.357
214.4000	-21.9643	374.18
214.2000	-22.027	375.025
214.0000	-22.0765	375.895
213.8000	-22.1045	376.785
213.6000	-22.1796	377.693
213.4000	-22.2577	378.622
213.2000	-22.2257	379.574
213.0000	-22.2325	380.552
212.8000	-22.2667	381.551
212.6000	-22.3554	382.566
212.4000	-22.4077	383.607
212.2000	-22.4136	384.669
212.0000	-22.4837	385.753
211.8000	-22.528	386.859
211.6000	-22.5042	387.994
211.4000	-22.538	389.161
211.2000	-22.5945	390.348
211.0000	-22.6555	391.566
210.8000	-22.6693	392.814
210.6000	-22.6928	394.091
210.4000	-22.7475	395.403
210.2000	-22.8382	396.749
210.0000	-22.8724	398.135
209.8000	-22.9097	399.556
209.6000	-22.9382	401.01
209.4000	-22.9469	402.513
209.2000	-22.9341	404.051
209.0000	-22.9157	405.625
208.8000	-22.8976	407.232
208.6000	-22.8112	408.875
208.4000	-22.6794	410.562
208.2000	-22.5718	412.285
208.0000	-22.4807	414.049
207.8000	-22.4074	415.864
207.6000	-22.1983	417.718
207.4000	-21.9881	419.612
207.2000	-21.7613	421.552
207.0000	-21.5459	423.543
206.8000	-21.3594	425.577
206.6000	-21.1211	427.656
206.4000	-20.8541	429.793
206.2000	-20.5603	431.976
206.0000	-20.2594	434.213
205.8000	-19.9929	436.499
205.6000	-19.7245	438.839
205.4000	-19.3302	441.233
205.2000	-18.9082	443.677
205.0000	-18.5059	446.164
204.8000	-17.9984	448.699
204.6000	-17.5266	451.29
204.4000	-17.1495	453.938
204.2000	-16.6361	456.63
204.0000	-16.2109	459.383
203.8000	-15.612	462.189
203.6000	-15.0912	465.054
203.4000	-14.706	467.978
203.2000	-14.0998	470.959
203.0000	-13.5291	474.008
202.8000	-13.0785	477.115
202.6000	-12.5299	480.28
202.4000	-11.9255	483.518
202.2000	-11.2253	486.82
202.0000	-10.6517	490.188
201.8000	-10.0222	493.63
201.6000	-9.22578	497.143
201.4000	-8.43811	500.738
201.2000	-7.6924	504.403
201.0000	-7.11154	508.154
200.8000	-6.35834	511.996
200.6000	-5.4892	515.926
200.4000	-4.61197	519.947
200.2000	-3.89849	524.069
200.0000	-3.14384	528.302
199.8000	-2.35896	532.657
199.6000	-1.61802	537.127
199.4000	-0.893372	541.723
199.2000	0.0623222	546.439
199.0000	0.788285	551.283
198.8000	1.45298	556.267
198.6000	2.18291	561.416
198.4000	3.11485	566.714
198.2000	4.10348	572.172
198.0000	4.90082	577.8
197.8000	5.54238	583.608
197.6000	6.2623	589.586
197.4000	7.38968	595.74
197.2000	8.06503	602.072
197.0000	8.38611	608.612
196.8000	9.10902	615.376
196.6000	9.79011	622.393
196.4000	10.3766	629.658
196.2000	10.9622	637.195
196.0000	11.0091	645.036
195.8000	11.3011	653.2
195.6000	11.1451	661.709
195.4000	11.3356	670.562
195.2000	11.2231	679.784
195.0000	11.6345	689.399
