TITLE	20201112_F28Y_GDP
DATA TYPE	
ORIGIN	JASCO
OWNER	
DATE	20/11/12
TIME	15:40:44
SPECTROMETER/DATA SYSTEM	JASCO Corp., J-715, Rev. 1.00
RESOLUTION	
DELTAX	-0.2
XUNITS	NANOMETERS
YUNITS	CD[mdeg]
Y2UNITS	HT[V]
FIRSTX	280.0000
LASTX	198.0000
NPOINTS	411
FIRSTY	0.74756
MAXY	11.56830
MINY	-20.88168
XYDATA
280.0000	0.747556	278.305
279.8000	0.745137	278.323
279.6000	0.745461	278.351
279.4000	0.740656	278.382
279.2000	0.758667	278.427
279.0000	0.753353	278.48
278.8000	0.753543	278.539
278.6000	0.741987	278.605
278.4000	0.730937	278.684
278.2000	0.71986	278.77
278.0000	0.711358	278.864
277.8000	0.710042	278.963
277.6000	0.709338	279.073
277.4000	0.718902	279.197
277.2000	0.720911	279.317
277.0000	0.718116	279.43
276.8000	0.694703	279.548
276.6000	0.664808	279.666
276.4000	0.647265	279.788
276.2000	0.623605	279.904
276.0000	0.603909	280.024
275.8000	0.603596	280.145
275.6000	0.584351	280.264
275.4000	0.582908	280.39
275.2000	0.586237	280.512
275.0000	0.559287	280.637
274.8000	0.547237	280.759
274.6000	0.517765	280.88
274.4000	0.487389	281.001
274.2000	0.487122	281.125
274.0000	0.492768	281.248
273.8000	0.492838	281.367
273.6000	0.489045	281.486
273.4000	0.499458	281.61
273.2000	0.500554	281.733
273.0000	0.484848	281.856
272.8000	0.493591	281.978
272.6000	0.485197	282.104
272.4000	0.47049	282.226
272.2000	0.479513	282.355
272.0000	0.483573	282.487
271.8000	0.505429	282.62
271.6000	0.516714	282.756
271.4000	0.519404	282.886
271.2000	0.520644	283.024
271.0000	0.514201	283.164
270.8000	0.525477	283.3
270.6000	0.525497	283.436
270.4000	0.543026	283.573
270.2000	0.537596	283.706
270.0000	0.528186	283.838
269.8000	0.534376	283.965
269.6000	0.524369	284.092
269.4000	0.517172	284.216
269.2000	0.493914	284.336
269.0000	0.471244	284.453
268.8000	0.477828	284.568
268.6000	0.467354	284.683
268.4000	0.477545	284.794
268.2000	0.463883	284.903
268.0000	0.447343	285.017
267.8000	0.43644	285.125
267.6000	0.413848	285.234
267.4000	0.413064	285.344
267.2000	0.390473	285.457
267.0000	0.398183	285.569
266.8000	0.393293	285.677
266.6000	0.403434	285.783
266.4000	0.409025	285.891
266.2000	0.391214	286
266.0000	0.370389	286.108
265.8000	0.352089	286.217
265.6000	0.329943	286.324
265.4000	0.334973	286.431
265.2000	0.356467	286.531
265.0000	0.357018	286.635
264.8000	0.363981	286.737
264.6000	0.351771	286.834
264.4000	0.363997	286.929
264.2000	0.364261	287.028
264.0000	0.374826	287.123
263.8000	0.372779	287.221
263.6000	0.379457	287.317
263.4000	0.380145	287.417
263.2000	0.380748	287.511
263.0000	0.396962	287.609
262.8000	0.40729	287.706
262.6000	0.398233	287.808
262.4000	0.383996	287.913
262.2000	0.383747	288.018
262.0000	0.383178	288.131
261.8000	0.37507	288.245
261.6000	0.364765	288.36
261.4000	0.365576	288.478
261.2000	0.361008	288.596
261.0000	0.360838	288.716
260.8000	0.368939	288.835
260.6000	0.379939	288.958
260.4000	0.384988	289.084
260.2000	0.38577	289.215
260.0000	0.385587	289.343
259.8000	0.394649	289.472
259.6000	0.398715	289.604
259.4000	0.421334	289.727
259.2000	0.447569	289.851
259.0000	0.46128	289.973
258.8000	0.478403	290.09
258.6000	0.467858	290.211
258.4000	0.452896	290.335
258.2000	0.466045	290.458
258.0000	0.468005	290.583
257.8000	0.503228	290.704
257.6000	0.493234	290.825
257.4000	0.512861	290.944
257.2000	0.513524	291.068
257.0000	0.508577	291.188
256.8000	0.50937	291.308
256.6000	0.505559	291.434
256.4000	0.486827	291.564
256.2000	0.489469	291.693
256.0000	0.464518	291.824
255.8000	0.47267	291.953
255.6000	0.442392	292.087
255.4000	0.424718	292.222
255.2000	0.424502	292.356
255.0000	0.39878	292.491
254.8000	0.407115	292.632
254.6000	0.366292	292.768
254.4000	0.337581	292.907
254.2000	0.336383	293.049
254.0000	0.340289	293.188
253.8000	0.333426	293.325
253.6000	0.326982	293.464
253.4000	0.333522	293.607
253.2000	0.338603	293.752
253.0000	0.344331	293.892
252.8000	0.343709	294.03
252.6000	0.345195	294.167
252.4000	0.31497	294.306
252.2000	0.325251	294.44
252.0000	0.327044	294.575
251.8000	0.329931	294.712
251.6000	0.35583	294.846
251.4000	0.353643	294.982
251.2000	0.327037	295.118
251.0000	0.334282	295.25
250.8000	0.308203	295.379
250.6000	0.298769	295.51
250.4000	0.299727	295.637
250.2000	0.30336	295.767
250.0000	0.287822	295.9
249.8000	0.268421	296.03
249.6000	0.256172	296.162
249.4000	0.213807	296.295
249.2000	0.208457	296.427
249.0000	0.180573	296.56
248.8000	0.145146	296.7
248.6000	0.129103	296.847
248.4000	0.108315	296.997
248.2000	0.0865717	297.15
248.0000	0.0761938	297.304
247.8000	0.064177	297.465
247.6000	0.0225153	297.624
247.4000	0.0266395	297.79
247.2000	0.0342321	297.957
247.0000	0.00726461	298.128
246.8000	0.00478697	298.302
246.6000	0.00688362	298.476
246.4000	-0.0106239	298.655
246.2000	-0.0311913	298.836
246.0000	-0.0342159	299.013
245.8000	-0.0682049	299.193
245.6000	-0.0829048	299.382
245.4000	-0.115766	299.575
245.2000	-0.178277	299.768
245.0000	-0.185921	299.964
244.8000	-0.234949	300.164
244.6000	-0.308775	300.37
244.4000	-0.35925	300.581
244.2000	-0.420762	300.791
244.0000	-0.474334	301.011
243.8000	-0.509213	301.244
243.6000	-0.567317	301.481
243.4000	-0.638022	301.721
243.2000	-0.719775	301.969
243.0000	-0.77106	302.217
242.8000	-0.874867	302.474
242.6000	-0.943329	302.735
242.4000	-0.997812	303.006
242.2000	-1.07406	303.282
242.0000	-1.14952	303.563
241.8000	-1.25352	303.848
241.6000	-1.32659	304.144
241.4000	-1.40729	304.448
241.2000	-1.50427	304.759
241.0000	-1.60763	305.073
240.8000	-1.69327	305.393
240.6000	-1.78521	305.723
240.4000	-1.90699	306.061
240.2000	-2.0052	306.411
240.0000	-2.08577	306.762
239.8000	-2.21418	307.123
239.6000	-2.3487	307.498
239.4000	-2.48567	307.881
239.2000	-2.61925	308.272
239.0000	-2.75196	308.672
238.8000	-2.88677	309.081
238.6000	-3.03535	309.498
238.4000	-3.179	309.929
238.2000	-3.32043	310.37
238.0000	-3.46078	310.818
237.8000	-3.59785	311.281
237.6000	-3.77061	311.754
237.4000	-3.98262	312.234
237.2000	-4.17155	312.727
237.0000	-4.30589	313.232
236.8000	-4.49145	313.745
236.6000	-4.66978	314.27
236.4000	-4.839	314.807
236.2000	-5.02841	315.354
236.0000	-5.21822	315.912
235.8000	-5.4256	316.479
235.6000	-5.64462	317.051
235.4000	-5.85612	317.635
235.2000	-6.09966	318.228
235.0000	-6.30897	318.828
234.8000	-6.4755	319.44
234.6000	-6.63615	320.067
234.4000	-6.85086	320.699
234.2000	-7.07301	321.34
234.0000	-7.27807	321.994
233.8000	-7.46482	322.653
233.6000	-7.70333	323.32
233.4000	-7.90909	323.994
233.2000	-8.13558	324.673
233.0000	-8.34232	325.362
232.8000	-8.52107	326.056
232.6000	-8.74238	326.748
232.4000	-8.93289	327.444
232.2000	-9.17869	328.14
232.0000	-9.42946	328.836
231.8000	-9.63445	329.53
231.6000	-9.85286	330.219
231.4000	-10.0435	330.913
231.2000	-10.2812	331.606
231.0000	-10.5189	332.291
230.8000	-10.7134	332.979
230.6000	-10.8675	333.666
230.4000	-11.0579	334.348
230.2000	-11.2769	335.023
230.0000	-11.4675	335.699
229.8000	-11.6599	336.373
229.6000	-11.8589	337.045
229.4000	-12.0499	337.716
229.2000	-12.2451	338.378
229.0000	-12.4651	339.035
228.8000	-12.6558	339.696
228.6000	-12.8516	340.348
228.4000	-13.0412	340.995
228.2000	-13.2445	341.636
228.0000	-13.4025	342.273
227.8000	-13.5994	342.903
227.6000	-13.7553	343.526
227.4000	-13.933	344.147
227.2000	-14.074	344.769
227.0000	-14.2335	345.384
226.8000	-14.3549	345.997
226.6000	-14.4691	346.607
226.4000	-14.6304	347.218
226.2000	-14.7197	347.828
226.0000	-14.8339	348.43
225.8000	-14.9383	349.036
225.6000	-15.045	349.645
225.4000	-15.1493	350.254
225.2000	-15.2175	350.861
225.0000	-15.3415	351.467
224.8000	-15.4491	352.076
224.6000	-15.5485	352.681
224.4000	-15.6837	353.291
224.2000	-15.7574	353.9
224.0000	-15.8934	354.514
223.8000	-15.9511	355.126
223.6000	-16.0021	355.736
223.4000	-16.1002	356.35
223.2000	-16.1734	356.964
223.0000	-16.2291	357.577
222.8000	-16.2706	358.188
222.6000	-16.3537	358.806
222.4000	-16.467	359.425
222.2000	-16.4848	360.052
222.0000	-16.5276	360.684
221.8000	-16.568	361.312
221.6000	-16.5976	361.939
221.4000	-16.643	362.573
221.2000	-16.6269	363.208
221.0000	-16.6319	363.842
220.8000	-16.6775	364.476
220.6000	-16.6393	365.112
220.4000	-16.6407	365.753
220.2000	-16.6193	366.398
220.0000	-16.6056	367.047
219.8000	-16.6023	367.7
219.6000	-16.641	368.353
219.4000	-16.6433	369.015
219.2000	-16.6666	369.689
219.0000	-16.6592	370.371
218.8000	-16.6911	371.063
218.6000	-16.7342	371.765
218.4000	-16.8018	372.474
218.2000	-16.8552	373.2
218.0000	-16.8933	373.939
217.8000	-16.929	374.689
217.6000	-17.0102	375.446
217.4000	-17.0333	376.221
217.2000	-17.0659	377.003
217.0000	-17.0854	377.802
216.8000	-17.0958	378.614
216.6000	-17.1542	379.434
216.4000	-17.1538	380.265
216.2000	-17.1428	381.107
216.0000	-17.131	381.962
215.8000	-17.15	382.833
215.6000	-17.1556	383.721
215.4000	-17.1856	384.629
215.2000	-17.2158	385.559
215.0000	-17.2681	386.512
214.8000	-17.3133	387.485
214.6000	-17.4204	388.483
214.4000	-17.4893	389.511
214.2000	-17.5361	390.56
214.0000	-17.5948	391.638
213.8000	-17.6388	392.745
213.6000	-17.7124	393.89
213.4000	-17.769	395.067
213.2000	-17.85	396.276
213.0000	-17.9734	397.512
212.8000	-18.108	398.791
212.6000	-18.1649	400.095
212.4000	-18.3	401.429
212.2000	-18.4277	402.805
212.0000	-18.4817	404.208
211.8000	-18.5857	405.646
211.6000	-18.7095	407.119
211.4000	-18.8911	408.631
211.2000	-19.0743	410.187
211.0000	-19.2466	411.784
210.8000	-19.4425	413.425
210.6000	-19.6381	415.109
210.4000	-19.84	416.846
210.2000	-19.95	418.632
210.0000	-20.0553	420.462
209.8000	-20.226	422.355
209.6000	-20.2907	424.305
209.4000	-20.4752	426.314
209.2000	-20.6162	428.387
209.0000	-20.7204	430.523
208.8000	-20.8308	432.717
208.6000	-20.8817	434.973
208.4000	-20.8679	437.29
208.2000	-20.8416	439.672
208.0000	-20.7196	442.124
207.8000	-20.6614	444.642
207.6000	-20.5843	447.231
207.4000	-20.4989	449.905
207.2000	-20.3857	452.651
207.0000	-20.2677	455.472
206.8000	-20.1292	458.365
206.6000	-19.9359	461.34
206.4000	-19.7911	464.398
206.2000	-19.5074	467.53
206.0000	-19.1351	470.749
205.8000	-18.8122	474.053
205.6000	-18.4739	477.443
205.4000	-18.3155	480.917
205.2000	-17.9803	484.46
205.0000	-17.4965	488.088
204.8000	-17.0596	491.806
204.6000	-16.574	495.614
204.4000	-16.0378	499.503
204.2000	-15.5353	503.481
204.0000	-15.1029	507.558
203.8000	-14.5121	511.722
203.6000	-13.9287	515.983
203.4000	-13.4051	520.345
203.2000	-12.8172	524.805
203.0000	-12.2926	529.364
202.8000	-11.559	534.027
202.6000	-10.8536	538.797
202.4000	-10.0779	543.686
202.2000	-9.5201	548.671
202.0000	-9.04836	553.752
201.8000	-8.40892	558.946
201.6000	-7.68416	564.268
201.4000	-6.77306	569.696
201.2000	-5.88175	575.233
201.0000	-5.03466	580.898
200.8000	-3.94209	586.699
200.6000	-2.91493	592.635
200.4000	-1.75856	598.712
200.2000	-0.837777	604.933
200.0000	0.0502396	611.319
199.8000	1.328	617.866
199.6000	2.22607	624.557
199.4000	3.27377	631.417
199.2000	4.96654	638.451
199.0000	6.0122	645.661
198.8000	7.20569	653.063
198.6000	8.60396	660.653
198.4000	9.6558	668.451
198.2000	10.7122	676.45
198.0000	11.5683	684.653
